Potential (V),Current (µA)
-0.199853,-0.027999876000000003
-0.19877799999999998,-0.027999876000000003
-0.197704,-0.027999876000000003
-0.19663,-0.013999938000000002
-0.19555499999999998,-0.013999938000000002
-0.194481,-0.020999908000000005
-0.193406,-0.010499954000000002
-0.192332,-0.006999969000000001
-0.19125699999999998,-0.006999969000000001
-0.190183,-0.006999969000000001
-0.189108,-0.0017499920000000001
-0.18803399999999998,-0.0034999840000000003
-0.186959,-0.0034999840000000003
-0.185885,-0.0017499920000000001
-0.18481,-0.0017499920000000001
-0.18373599999999998,-0.0008749960000000001
-0.182661,-0.0013124940000000002
-0.181587,-0.0021874900000000003
-0.18051199999999998,0.0006562470000000001
-0.179438,-0.0006562470000000001
-0.178363,-0.0034999840000000003
-0.177289,0.002078115
-0.17621399999999998,0.0
-0.17514,-0.0021874900000000003
-0.174065,0.000279998
-0.172991,-0.000167999
-0.17191599999999999,0.00043119800000000004
-0.170842,-0.00012319900000000002
-0.169768,-0.00038079800000000006
-0.16869299999999998,0.0005095970000000001
-0.167619,-0.000156799
-0.166544,-0.000447998
-0.16547,0.000515197
-0.16439499999999999,-0.000145599
-0.163321,-0.00021279900000000003
-0.162246,0.00034159800000000003
-0.16117199999999998,-0.00016239900000000003
-0.160097,0.00017359900000000003
-0.159023,3.9199832000000005e-05
-0.157948,-0.00024079800000000002
-0.15687399999999999,0.00041999800000000004
-0.155799,-0.00013439900000000003
-0.154725,-0.00038639800000000004
-0.15364999999999998,0.0005095970000000001
-0.152576,-0.000156799
-0.151501,-0.000436798
-0.150427,0.0005095970000000001
-0.14935199999999998,-0.000145599
-0.148278,-0.000195999
-0.147203,0.000335998
-0.14612899999999998,-0.00016239900000000003
-0.145054,0.000184799
-0.14398,3.3599856e-05
-0.142905,-0.00024639800000000005
-0.14183099999999998,0.00042559800000000007
-0.140757,-0.000145599
-0.139682,-0.000391998
-0.13860799999999998,0.0005095970000000001
-0.137533,-0.000156799
-0.136459,-0.000436798
-0.135384,0.000503997
-0.13430999999999998,-0.000145599
-0.133235,-0.000179199
-0.132161,0.00031919800000000003
-0.13108599999999998,-0.00016239900000000003
-0.130012,0.00020159900000000003
-0.128937,2.2399902000000004e-05
-0.127863,-0.000251998
-0.12678799999999998,0.00043119800000000004
-0.125714,-0.000139999
-0.124639,-0.00040319800000000007
-0.123565,0.000515197
-0.12248999999999999,-0.00015119900000000003
-0.121416,-0.00043119800000000004
-0.12034099999999999,0.000503997
-0.119267,-0.000145599
-0.11819199999999999,-0.000167999
-0.117118,0.00030799800000000003
-0.116043,-0.000167999
-0.11496899999999999,0.00021279900000000003
-0.113894,1.1199951000000002e-05
-0.11281999999999999,-0.000257598
-0.111746,0.00043119800000000004
-0.11067099999999999,-0.000145599
-0.109597,-0.00039759800000000004
-0.108522,0.000515197
-0.107448,-0.00015119900000000003
-0.106373,-0.00042559800000000007
-0.10529899999999999,0.000498397
-0.104224,-0.000145599
-0.10314999999999999,-0.00015119900000000003
-0.102075,0.00030239800000000005
-0.101001,-0.000167999
-0.099926736,0.000223999
-0.098852256,5.5999750000000005e-06
-0.09777777600000001,-0.000257598
-0.09670329600000001,0.00044239800000000004
-0.095628816,-0.000145599
-0.094554336,-0.000408798
-0.093479848,0.000520797
-0.092405368,-0.00015119900000000003
-0.09133089600000001,-0.00041999800000000004
-0.09025640800000001,0.000498397
-0.08918192800000001,-0.000145599
-0.088107448,-0.000139999
-0.087032968,0.000291198
-0.08595848,-0.000167999
-0.084884,0.00023519800000000002
-0.08380952800000001,0.0
-0.08273504000000001,-0.000263198
-0.08166056000000001,0.000447998
-0.08058607200000001,-0.000145599
-0.0795116,-0.000414398
-0.07843712,0.000520797
-0.077362632,-0.00015119900000000003
-0.07628816000000001,-0.00042559800000000007
-0.07521367200000001,0.0004927970000000001
-0.074139192,-0.000145599
-0.073064712,-0.00012319900000000002
-0.071990232,0.000279998
-0.070915752,-0.00017359900000000003
-0.069841264,0.00024639800000000005
-0.068766784,-1.1199951000000002e-05
-0.067692312,-0.00026879800000000005
-0.066617824,0.000447998
-0.065543348,-0.00015119900000000003
-0.06446886,-0.000414398
-0.063394384,0.000520797
-0.062319900000000004,-0.00015119900000000003
-0.06124542,-0.000414398
-0.060170940000000006,0.00048719700000000003
-0.05909646,-0.000139999
-0.058021976,-0.00011199900000000001
-0.056947496,0.00026879800000000005
-0.055873016000000005,-0.00017359900000000003
-0.054798532000000004,0.000251998
-0.053724056000000006,-1.6799928e-05
-0.052649572000000006,-0.000274398
-0.051575092,0.00045359800000000004
-0.050500608,-0.00015119900000000003
-0.049426128,-0.00041999800000000004
-0.048351648000000004,0.000520797
-0.047277168,-0.00015119900000000003
-0.046202684,-0.00040319800000000007
-0.045128204000000005,0.0004927970000000001
-0.044053724,-0.000145599
-0.04297924,-0.00010079900000000001
-0.041904764000000004,0.000263198
-0.040830280000000004,-0.00017359900000000003
-0.0397558,0.000263198
-0.038681316,-2.7999878000000003e-05
-0.037606836000000005,-0.000274398
-0.036532356,0.00045919700000000006
-0.035457876,-0.00015119900000000003
-0.034383392,-0.00042559800000000007
-0.033308912,0.000520797
-0.03223443,-0.00015119900000000003
-0.031159950000000002,-0.00040319800000000007
-0.030085470000000003,0.00048159700000000006
-0.029010988,-0.000145599
-0.027936508000000002,-8.3999632e-05
-0.026862028000000003,0.000251998
-0.025787546,-0.000179199
-0.024713064,0.00026879800000000005
-0.023638584,-2.7999878000000003e-05
-0.022564102000000003,-0.000279998
-0.02148962,0.00045919700000000006
-0.020415140000000002,-0.000156799
-0.019340658,-0.00042559800000000007
-0.018266178,0.000520797
-0.017191696,-0.00015119900000000003
-0.016117215,-0.000391998
-0.015042735000000002,0.0004759970000000001
-0.013968254000000001,-0.00015119900000000003
-0.012893773,-7.279968000000001e-05
-0.011819292,0.00023519800000000002
-0.01074481,-0.000179199
-0.009670329,0.000279998
-0.008595848,-3.9199832000000005e-05
-0.007521367,-0.000285598
-0.006446886000000001,0.00046479700000000003
-0.005372405,-0.000156799
-0.004297924,-0.000436798
-0.0032234430000000003,0.0005263970000000001
-0.002148962,-0.000145599
-0.001074481,-0.000391998
0.0,0.000470397
0.001074481,-0.000145599
0.002148962,-5.5999756000000005e-05
0.0032234430000000003,0.000223999
0.004297924,-0.000179199
0.005372405,0.000291198
0.006446886000000001,-5.0399780000000004e-05
0.007521367,-0.000291198
0.008595848,0.00046479700000000003
0.009670329,-0.000156799
0.01074481,-0.000436798
0.011819292,0.0005263970000000001
0.012893773,-0.000145599
0.013968254000000001,-0.00038079800000000006
0.015042735000000002,0.00046479700000000003
0.016117215,-0.000145599
0.017191696,-4.479980400000001e-05
0.018266178,0.000223999
0.019340658,-0.000179199
0.020415140000000002,0.00030239800000000005
0.02148962,-5.5999756000000005e-05
0.022564102000000003,-0.000296798
0.023638584,0.00046479700000000003
0.024713064,-0.000156799
0.025787546,-0.00044239800000000004
0.026862028000000003,0.0005263970000000001
0.027936508000000002,-0.000145599
0.029010988,-0.000369598
0.030085470000000003,0.00046479700000000003
0.031159950000000002,-0.000145599
0.03223443,-2.7999878000000003e-05
0.033308912,0.000207199
0.034383392,-0.000184799
0.035457876,0.000313598
0.036532356,-6.159973199999999e-05
0.037606836000000005,-0.00030239800000000005
0.038681316,0.0004759970000000001
0.0397558,-0.000156799
0.040830280000000004,-0.000436798
0.041904764000000004,0.0005263970000000001
0.04297924,-0.000145599
0.044053724,-0.00036399800000000003
0.045128204000000005,0.00045919700000000006
0.046202684,-0.000145599
0.047277168,-1.1199951000000002e-05
0.048351648000000004,0.000195999
0.049426128,-0.00019039900000000003
0.050500608,0.000313598
0.051575092,-7.279968000000001e-05
0.052649572000000006,-0.00030799800000000003
0.053724056000000006,0.0004759970000000001
0.054798532000000004,-0.000156799
0.055873016000000005,-0.00044239800000000004
0.056947496,0.0005263970000000001
0.058021976,-0.000145599
0.05909646,-0.00035279800000000003
0.060170940000000006,0.000447998
0.06124542,-0.000145599
0.062319900000000004,0.0
0.063394384,0.000184799
0.06446886,-0.00019039900000000003
0.065543348,0.00032479800000000006
0.066617824,-7.279968000000001e-05
0.067692312,-0.000313598
0.068766784,0.00048159700000000006
0.069841264,-0.000156799
0.070915752,-0.000447998
0.071990232,0.0005263970000000001
0.073064712,-0.000145599
0.074139192,-0.00034159800000000003
0.07521367200000001,0.00044239800000000004
0.07628816000000001,-0.000145599
0.077362632,1.6799928e-05
0.07843712,0.000167999
0.0795116,-0.000195999
0.08058607200000001,0.00034159800000000003
0.08166056000000001,-8.3999632e-05
0.08273504000000001,-0.000313598
0.08380952800000001,0.00048159700000000006
0.084884,-0.000156799
0.08595848,-0.000447998
0.087032968,0.0005263970000000001
0.088107448,-0.000145599
0.08918192800000001,-0.000335998
0.09025640800000001,0.00043119800000000004
0.09133089600000001,-0.00015119900000000003
0.092405368,3.3599856e-05
0.093479848,0.000156799
0.094554336,-0.00020159900000000003
0.095628816,0.00034719800000000006
0.09670329600000001,-8.959960800000002e-05
0.09777777600000001,-0.00032479800000000006
0.098852256,0.00048719700000000003
0.099926736,-0.000156799
0.101001,-0.000447998
0.102075,0.0005263970000000001
0.10314999999999999,-0.000145599
0.104224,-0.00031919800000000003
0.10529899999999999,0.00042559800000000007
0.106373,-0.00015119900000000003
0.107448,5.0399780000000004e-05
0.108522,0.000145599
0.109597,-0.00020159900000000003
0.11067099999999999,0.000358398
0.111746,-9.5199592e-05
0.11281999999999999,-0.000335998
0.113894,0.0004927970000000001
0.11496899999999999,-0.00015119900000000003
0.116043,-0.00045359800000000004
0.117118,0.0005263970000000001
0.11819199999999999,-0.000145599
0.119267,-0.00030799800000000003
0.12034099999999999,0.000414398
0.121416,-0.00015119900000000003
0.12248999999999999,6.7199712e-05
0.123565,0.000128799
0.124639,-0.000207199
0.125714,0.000369598
0.12678799999999998,-0.00010079900000000001
0.127863,-0.00034159800000000003
0.128937,0.0004927970000000001
0.130012,-0.000156799
0.13108599999999998,-0.00045359800000000004
0.132161,0.000520797
0.133235,-0.000145599
0.13430999999999998,-0.000291198
0.135384,0.00040319800000000007
0.136459,-0.00015119900000000003
0.137533,8.3999632e-05
0.13860799999999998,0.00011199900000000001
0.139682,-0.00021279900000000003
0.140757,0.00038079800000000006
0.14183099999999998,-0.00010639900000000001
0.142905,-0.00034719800000000006
0.14398,0.000498397
0.145054,-0.000156799
0.14612899999999998,-0.000447998
0.147203,0.0005263970000000001
0.148278,-0.000145599
0.14935199999999998,-0.000274398
0.150427,0.000391998
0.151501,-0.00015119900000000003
0.152576,0.00010639900000000001
0.15364999999999998,0.00010079900000000001
0.154725,-0.00021279900000000003
0.155799,0.000391998
0.15687399999999999,-0.00011759900000000001
0.157948,-0.00035279800000000003
0.159023,0.000498397
0.160097,-0.000156799
0.16117199999999998,-0.000447998
0.162246,0.000520797
0.163321,-0.000139999
0.16439499999999999,-0.000263198
0.16547,0.00038639800000000004
0.166544,-0.00015119900000000003
0.167619,0.00011759900000000001
0.16869299999999998,8.959960800000002e-05
0.169768,-0.000218399
0.170842,0.00039759800000000004
0.17191599999999999,-0.00011759900000000001
0.172991,-0.00036399800000000003
0.174065,0.000498397
0.17514,-0.000156799
0.17621399999999998,-0.000447998
0.177289,0.000520797
0.178363,-0.000145599
0.179438,-0.00024639800000000005
0.18051199999999998,0.000369598
0.181587,-0.000156799
0.182661,0.00013439900000000003
0.18373599999999998,7.279968000000001e-05
0.18481,-0.000223999
0.185885,0.00040319800000000007
0.186959,-0.00012319900000000002
0.18803399999999998,-0.000369598
0.189108,0.000503997
0.190183,-0.000156799
0.19125699999999998,-0.00044239800000000004
0.192332,0.000520797
0.193406,-0.000139999
0.194481,-0.00023519800000000002
0.19555499999999998,0.00036399800000000003
0.19663,-0.000156799
0.197704,0.00015119900000000003
0.19877799999999998,6.159973199999999e-05
0.199853,-0.00022959800000000002
0.200927,0.000408798
0.202002,-0.000128799
0.20307599999999998,-0.00037519800000000004
0.204151,0.000503997
0.205225,-0.00015119900000000003
0.20629999999999998,-0.00044239800000000004
0.207374,0.000515197
0.208449,-0.000139999
0.209523,-0.000218399
0.21059799999999998,0.000358398
0.211672,-0.00015119900000000003
0.212747,0.00016239900000000003
0.21382099999999998,5.5999756000000005e-05
0.214896,-0.00023519800000000002
0.21597,0.000414398
0.217045,-0.000128799
0.21811899999999998,-0.00038079800000000006
0.219194,0.0005095970000000001
0.220268,-0.00015119900000000003
0.22134299999999998,-0.00044239800000000004
0.222417,0.000515197
0.223492,-0.000139999
0.224566,-0.00020159900000000003
0.22564099999999998,0.00034159800000000003
0.226715,-0.000156799
0.227789,0.000179199
0.22886399999999998,4.479980400000001e-05
0.22993799999999998,-0.00023519800000000002
0.231013,0.00042559800000000007
0.232087,-0.00013439900000000003
0.23316199999999998,-0.00038639800000000004
0.234236,0.0005095970000000001
0.235311,-0.00015119900000000003
0.23638499999999998,-0.000436798
0.23745999999999998,0.0005095970000000001
0.238534,-0.000145599
0.239609,-0.000184799
0.24068299999999998,0.000330398
0.241758,-0.000156799
0.242832,0.000184799
0.24390699999999998,2.7999878000000003e-05
0.24498099999999998,-0.00024639800000000005
0.246056,0.00042559800000000007
0.24713,-0.000139999
0.24820499999999998,-0.000391998
0.249279,0.000515197
0.25035399999999997,-0.000145599
0.251428,-0.00043119800000000004
0.252503,0.0005095970000000001
0.253577,-0.000139999
0.254652,-0.00017359900000000003
0.255726,0.00031919800000000003
0.2568,-0.00016239900000000003
0.25787499999999997,0.000207199
0.258949,2.2399902000000004e-05
0.260024,-0.00024639800000000005
0.261098,0.00043119800000000004
0.262173,-0.000139999
0.263247,-0.00039759800000000004
0.264322,0.000515197
0.26539599999999997,-0.000145599
0.266471,-0.00042559800000000007
0.267545,0.000503997
0.26861999999999997,-0.000139999
0.269694,-0.00015119900000000003
0.270769,0.00030799800000000003
0.271843,-0.00016239900000000003
0.272918,0.000223999
0.273992,1.1199951000000002e-05
0.275067,-0.00024639800000000005
0.27614099999999997,0.00044239800000000004
0.27721599999999996,-0.000139999
0.27829,-0.00040319800000000007
0.279365,0.000520797
0.280439,-0.000145599
0.281514,-0.00041999800000000004
0.282588,0.000498397
0.283663,-0.000139999
0.28473699999999996,-0.00013439900000000003
0.285811,0.000296798
0.286886,-0.000167999
0.28796,0.00023519800000000002
0.289035,0.0
0.290109,-0.000257598
0.291184,0.000447998
0.29225799999999996,-0.000145599
0.293333,-0.000408798
0.294407,0.000520797
0.29548199999999997,-0.000145599
0.296556,-0.000414398
0.297631,0.0004927970000000001
0.298705,-0.00013439900000000003
0.29978,-0.00011759900000000001
0.300854,0.000279998
0.301929,-0.000167999
0.30300299999999997,0.00024639800000000005
0.30407799999999996,-5.5999750000000005e-06
0.305152,-0.000263198
0.30622699999999997,0.00045359800000000004
0.307301,-0.000145599
0.308376,-0.00041999800000000004
0.30945,0.000520797
0.310525,-0.000145599
0.31159899999999996,-0.000408798
0.312673,0.00048719700000000003
0.31374799999999997,-0.000139999
0.314822,-0.00010639900000000001
0.315897,0.00026879800000000005
0.316971,-0.000167999
0.318046,0.000257598
0.31911999999999996,-1.6799928e-05
0.320195,-0.00026879800000000005
0.32126899999999997,0.00045359800000000004
0.32234399999999996,-0.000145599
0.323418,-0.000414398
0.324493,0.0005263970000000001
0.325567,-0.000145599
0.326642,-0.00040319800000000007
0.327716,0.00048719700000000003
0.328791,-0.00013439900000000003
0.32986499999999996,-8.959960800000002e-05
0.33094,0.000263198
0.332014,-0.00017359900000000003
0.33308899999999997,0.00026879800000000005
0.334163,-2.2399902000000004e-05
0.335238,-0.000274398
0.336312,0.00045919700000000006
0.337387,-0.000145599
0.338461,-0.00042559800000000007
0.339536,0.0005263970000000001
0.34060999999999997,-0.000145599
0.341684,-0.00039759800000000004
0.342759,0.00048159700000000006
0.343833,-0.000139999
0.344908,-7.839966400000001e-05
0.345982,0.000251998
0.347057,-0.00017359900000000003
0.34813099999999997,0.000279998
0.34920599999999996,-2.7999878000000003e-05
0.35028,-0.000274398
0.351355,0.00046479700000000003
0.352429,-0.00015119900000000003
0.353504,-0.00042559800000000007
0.354578,0.0005263970000000001
0.355653,-0.000145599
0.35672699999999996,-0.000391998
0.357802,0.0004759970000000001
0.358876,-0.000139999
0.35995099999999997,-6.7199712e-05
0.361025,0.00024079800000000002
0.3621,-0.00017359900000000003
0.363174,0.000285598
0.364249,-3.3599856e-05
0.365323,-0.000285598
0.366398,0.00046479700000000003
0.36747199999999997,-0.000145599
0.368546,-0.00043119800000000004
0.369621,0.0005263970000000001
0.370695,-0.000139999
0.37177,-0.00038639800000000004
0.372844,0.000470397
0.373919,-0.000139999
0.37499299999999997,-5.0399780000000004e-05
0.37606799999999996,0.00022959800000000002
0.377142,-0.000179199
0.37821699999999997,0.000296798
0.379291,-4.479980400000001e-05
0.380366,-0.000291198
0.38144,0.000470397
0.382515,-0.00015119900000000003
0.38358899999999996,-0.00043119800000000004
0.384664,0.0005263970000000001
0.38573799999999997,-0.000145599
0.38681299999999996,-0.00037519800000000004
0.387887,0.00046479700000000003
0.388962,-0.000145599
0.390036,-3.3599856e-05
0.391111,0.000218399
0.392185,-0.000179199
0.39326,0.00030799800000000003
0.39433399999999996,-5.5999756000000005e-05
0.39540899999999995,-0.000291198
0.396483,0.0004759970000000001
0.397557,-0.00015119900000000003
0.398632,-0.000436798
0.399706,0.0005263970000000001
0.400781,-0.000139999
0.40185499999999996,-0.00036399800000000003
0.40292999999999995,0.00046479700000000003
0.404004,-0.000139999
0.40507899999999997,-1.6799928e-05
0.406153,0.000207199
0.407228,-0.000184799
0.408302,0.00031919800000000003
0.409377,-6.159973199999999e-05
0.41045099999999995,-0.000296798
0.411526,0.00048159700000000006
0.41259999999999997,-0.00015119900000000003
0.41367499999999996,-0.000436798
0.414749,0.000531997
0.41582399999999997,-0.000139999
0.416898,-0.00035279800000000003
0.417973,0.00045919700000000006
0.419047,-0.000139999
0.420122,0.0
0.42119599999999996,0.000195999
0.422271,-0.000184799
0.42334499999999997,0.000330398
0.42441999999999996,-6.7199712e-05
0.425494,-0.00030239800000000005
0.426568,0.00048159700000000006
0.427643,-0.00015119900000000003
0.42871699999999996,-0.00044239800000000004
0.429792,0.000531997
0.43086599999999997,-0.000139999
0.43194099999999996,-0.00034719800000000006
0.433015,0.00045359800000000004
0.43409,-0.000139999
0.435164,1.1199951000000002e-05
0.436239,0.000179199
0.437313,-0.00019039900000000003
0.438388,0.000335998
0.43946199999999996,-7.279968000000001e-05
0.44053699999999996,-0.00030799800000000003
0.441611,0.00048159700000000006
0.44268599999999997,-0.00015119900000000003
0.44376,-0.000436798
0.444835,0.000531997
0.445909,-0.000139999
0.446984,-0.00034159800000000003
0.44805799999999996,0.00044239800000000004
0.449133,-0.000145599
0.45020699999999997,2.2399902000000004e-05
0.45128199999999996,0.00017359900000000003
0.452356,-0.00019039900000000003
0.45343,0.00034719800000000006
0.454505,-7.839966400000001e-05
0.45557899999999996,-0.000313598
0.456654,0.00048719700000000003
0.45772799999999997,-0.00015119900000000003
0.45880299999999996,-0.00044239800000000004
0.459877,0.0005263970000000001
0.460952,-0.000139999
0.462026,-0.00032479800000000006
0.463101,0.000436798
0.464175,-0.000145599
0.46525,3.3599856e-05
0.46632399999999996,0.00016239900000000003
0.46739899999999995,-0.00019039900000000003
0.468473,0.00035279800000000003
0.46954799999999997,-8.3999632e-05
0.470622,-0.00031919800000000003
0.471697,0.00048719700000000003
0.472771,-0.00015119900000000003
0.473846,-0.000447998
0.47491999999999995,0.0005263970000000001
0.475995,-0.000139999
0.47706899999999997,-0.00031919800000000003
0.47814399999999996,0.00042559800000000007
0.479218,-0.000145599
0.48029299999999997,4.479980400000001e-05
0.481367,0.00015119900000000003
0.48244099999999995,-0.00020159900000000003
0.483516,0.000358398
0.48458999999999997,-8.959960800000002e-05
0.48566499999999996,-0.00032479800000000006
0.486739,0.0004927970000000001
0.48781399999999997,-0.00015119900000000003
0.488888,-0.000447998
0.489963,0.0005263970000000001
0.491037,-0.000139999
0.492112,-0.00030799800000000003
0.49318599999999996,0.00042559800000000007
0.49426099999999995,-0.000145599
0.49533499999999997,6.159973199999999e-05
0.49640999999999996,0.000139999
0.497484,-0.00020159900000000003
0.498559,0.000369598
0.499633,-0.00010079900000000001
0.5007079999999999,-0.000330398
0.501782,0.00048719700000000003
0.502857,-0.000156799
0.503931,-0.000447998
0.505006,0.0005263970000000001
0.50608,-0.000139999
0.507155,-0.00030239800000000005
0.5082289999999999,0.000408798
0.509304,-0.00015119900000000003
0.510378,7.279968000000001e-05
0.511452,0.00012319900000000002
0.512527,-0.000207199
0.513601,0.00037519800000000004
0.514676,-0.00010639900000000001
0.5157499999999999,-0.00034159800000000003
0.516825,0.0004927970000000001
0.517899,-0.000156799
0.5189739999999999,-0.000447998
0.520048,0.0005263970000000001
0.521123,-0.000139999
0.522197,-0.000279998
0.523272,0.000408798
0.524346,-0.000145599
0.525421,0.00010079900000000001
0.5264949999999999,0.00011199900000000001
0.52757,-0.000207199
0.528644,0.000391998
0.5297189999999999,-0.00010639900000000001
0.530793,-0.00034159800000000003
0.531868,0.0005095970000000001
0.532942,-0.000145599
0.534017,-0.00044239800000000004
0.535091,0.0005263970000000001
0.5361659999999999,-0.00013439900000000003
0.5372399999999999,-0.000263198
0.538314,0.00039759800000000004
0.539389,-0.000145599
0.540463,0.00011199900000000001
0.541538,0.00010079900000000001
0.542612,-0.000207199
0.5436869999999999,0.00039759800000000004
0.5447609999999999,-0.00011199900000000001
0.545836,-0.00034719800000000006
0.54691,0.000503997
0.5479849999999999,-0.000145599
0.549059,-0.00044239800000000004
0.550134,0.0005263970000000001
0.5512079999999999,-0.000128799
0.552283,-0.000251998
0.553357,0.00038639800000000004
0.5544319999999999,-0.000145599
0.5555059999999999,0.00013439900000000003
0.556581,8.959960800000002e-05
0.557655,-0.00021279900000000003
0.55873,0.00040319800000000007
0.559804,-0.00011199900000000001
0.560879,-0.00035279800000000003
0.5619529999999999,0.0005095970000000001
0.563028,-0.000145599
0.564102,-0.00044239800000000004
0.5651769999999999,0.000520797
0.566251,-0.00013439900000000003
0.567326,-0.00023519800000000002
0.5684,0.00037519800000000004
0.5694739999999999,-0.000145599
0.570549,0.000139999
0.571623,7.839966400000001e-05
0.5726979999999999,-0.000218399
0.573772,0.000408798
0.574847,-0.00011759900000000001
0.575921,-0.00036399800000000003
0.576996,0.000503997
0.57807,-0.000145599
0.579145,-0.000436798
0.5802189999999999,0.000520797
0.581294,-0.00013439900000000003
0.582368,-0.00022959800000000002
0.5834429999999999,0.00036399800000000003
0.584517,-0.000145599
0.585592,0.00015119900000000003
0.586666,6.7199712e-05
0.587741,-0.000223999
0.588815,0.000408798
0.58989,-0.000128799
0.5909639999999999,-0.000369598
0.592039,0.000503997
0.593113,-0.00015119900000000003
0.5941879999999999,-0.00044239800000000004
0.595262,0.000515197
0.596336,-0.00013439900000000003
0.597411,-0.000218399
0.5984849999999999,0.00035279800000000003
0.59956,-0.00015119900000000003
0.600634,0.00016239900000000003
0.6017089999999999,6.159973199999999e-05
0.602783,-0.000223999
0.603858,0.000414398
0.604932,-0.00012319900000000002
0.606007,-0.00036399800000000003
0.607081,0.0005095970000000001
0.6081559999999999,-0.000145599
0.6092299999999999,-0.000436798
0.610305,0.000520797
0.611379,-0.000128799
0.6124539999999999,-0.000207199
0.613528,0.000358398
0.614603,-0.000139999
0.6156769999999999,0.00019039900000000003
0.616752,7.279968000000001e-05
0.617826,-0.000179199
0.6189009999999999,0.0004927970000000001
0.6199749999999999,-5.5999756000000005e-05
0.62105,-0.000313598
0.622124,0.000582397
0.6231979999999999,-0.00010079900000000001
0.624273,-0.00039759800000000004
0.625347,0.0005767970000000001
0.6264219999999999,-0.00010079900000000001
0.6274959999999999,-0.000195999
0.628571,0.00034159800000000003
0.629645,-0.000167999
0.63072,0.00017359900000000003
0.631794,2.2399902000000004e-05
0.632869,-0.00024639800000000005
0.6339429999999999,0.00042559800000000007
0.635018,-0.00015119900000000003
0.636092,-0.000408798
0.6371669999999999,0.000503997
0.638241,-0.000179199
0.639316,-0.00048719700000000003
0.64039,0.00048719700000000003
0.641465,-0.000179199
0.642539,-0.00023519800000000002
0.643614,0.00030799800000000003
0.6446879999999999,-0.00019039900000000003
0.645763,0.00016239900000000003
0.646837,1.1199951000000002e-05
0.6479119999999999,-0.00026879800000000005
0.648986,0.00041999800000000004
0.650061,-0.00019039900000000003
0.651135,-0.00044239800000000004
0.6522089999999999,0.000515197
0.653284,-0.00019039900000000003
0.654358,-0.00043119800000000004
0.6554329999999999,0.0005263970000000001
0.656507,-0.00017359900000000003
0.657582,-0.00016239900000000003
0.658656,0.000335998
0.659731,-0.000195999
0.660805,0.000223999
0.66188,1.1199951000000002e-05
0.6629539999999999,-0.000279998
0.664029,0.00046479700000000003
0.665103,-0.000167999
0.6661779999999999,-0.00040319800000000007
0.667252,0.000559997
0.668327,-0.000179199
0.669401,-0.000414398
0.670476,0.000543197
0.67155,-0.000167999
0.6726249999999999,-0.00013439900000000003
0.6736989999999999,0.000335998
0.674774,-0.000195999
0.675848,0.00024639800000000005
0.6769229999999999,5.5999750000000005e-06
0.677997,-0.000279998
0.679072,0.00048159700000000006
0.6801459999999999,-0.000167999
0.6812199999999999,-0.000408798
0.682295,0.0005711970000000001
0.683369,-0.00017359900000000003
0.6844439999999999,-0.000408798
0.685518,0.0005487970000000001
0.686593,-0.000167999
0.6876669999999999,-0.00012319900000000002
0.688742,0.000330398
0.689816,-0.000195999
0.6908909999999999,0.000263198
0.6919649999999999,5.5999750000000005e-06
0.69304,-0.000279998
0.694114,0.00048719700000000003
0.695189,-0.000167999
0.696263,-0.000414398
0.697338,0.0005711970000000001
0.6984119999999999,-0.000179199
0.699487,-0.000408798
0.700561,0.0005487970000000001
0.7016359999999999,-0.000167999
0.70271,-0.00010639900000000001
0.703785,0.000335998
0.704859,-0.000179199
0.705934,0.000291198
0.707008,3.9199832000000005e-05
0.708083,-0.00022959800000000002
0.7091569999999999,0.000531997
0.710231,-6.159973199999999e-05
0.711306,-0.00026879800000000005
0.71238,0.0006831970000000001
0.713455,-3.9199832000000005e-05
0.714529,-0.00035279800000000003
0.715604,0.000559997
0.7166779999999999,-0.00012319900000000002
0.717753,-0.000128799
0.718827,0.00030799800000000003
0.7199019999999999,-0.000184799
0.720976,0.00023519800000000002
0.722051,-1.1199951000000002e-05
0.723125,-0.000285598
0.7242,0.00045359800000000004
0.725274,-0.00016239900000000003
0.726349,-0.00044239800000000004
0.7274229999999999,0.000531997
0.728498,-0.00017359900000000003
0.729572,-0.00044239800000000004
0.7306469999999999,0.0005095970000000001
0.731721,-0.000179199
0.732796,-0.00012319900000000002
0.7338699999999999,0.000296798
0.734945,-0.00021279900000000003
0.736019,0.000279998
0.737093,-2.7999878000000003e-05
0.7381679999999999,-0.00030239800000000005
0.739242,0.0005095970000000001
0.740317,-0.000179199
0.7413909999999999,-0.00043119800000000004
0.742466,0.000587997
0.74354,-0.000184799
0.7446149999999999,-0.00039759800000000004
0.7456889999999999,0.0005487970000000001
0.746764,-0.00017359900000000003
0.747838,-6.7199712e-05
0.7489129999999999,0.000296798
0.749987,-0.000218399
0.751062,0.000313598
0.7521359999999999,-3.3599856e-05
0.753211,-0.000313598
0.754285,0.000537597
0.7553599999999999,-0.000184799
0.7564339999999999,-0.00044239800000000004
0.757509,0.000599197
0.758583,-0.000184799
0.7596579999999999,-0.00038639800000000004
0.760732,0.0005543970000000001
0.761807,-0.000184799
0.7628809999999999,-3.9199832000000005e-05
0.7639549999999999,0.000279998
0.76503,-0.00022959800000000002
0.766104,0.000335998
0.7671789999999999,-6.159973199999999e-05
0.768253,-0.00034719800000000006
0.769328,0.000537597
0.7704019999999999,-0.000223999
0.771477,-0.0004927970000000001
0.772551,0.000599197
0.7736259999999999,-0.00024639800000000005
0.7746999999999999,-0.00041999800000000004
0.775775,0.000515197
0.776849,-0.000251998
0.777924,-2.7999878000000003e-05
0.778998,0.000218399
0.780073,-0.000291198
0.7811469999999999,0.000391998
0.782222,-0.00011199900000000001
0.783296,-0.00039759800000000004
0.7843709999999999,0.0005935970000000001
0.785445,-0.00024079800000000002
0.78652,-0.000503997
0.787594,0.000632797
0.788669,-0.00022959800000000002
0.789743,-0.000391998
0.7908179999999999,0.000531997
0.7918919999999999,-0.00022959800000000002
0.792967,1.6799928e-05
0.794041,0.000251998
0.795115,-0.00024079800000000002
0.79619,0.00044239800000000004
0.797264,-7.279968000000001e-05
0.7983389999999999,-0.000358398
0.7994129999999999,0.0006215970000000001
0.800488,-0.00021279900000000003
0.801562,-0.00048159700000000006
0.8026369999999999,0.0006495970000000001
0.803711,-0.00021279900000000003
0.804786,-0.000369598
0.8058599999999999,0.000543197
0.806935,-0.00021279900000000003
0.808009,3.9199832000000005e-05
0.8090839999999999,0.00023519800000000002
0.8101579999999999,-0.000257598
0.811233,0.000447998
0.812307,-8.3999632e-05
0.8133819999999999,-0.00036399800000000003
0.814456,0.0006215970000000001
0.815531,-0.00021279900000000003
0.8166049999999999,-0.0004759970000000001
0.81768,0.000655197
0.818754,-0.000207199
0.8198289999999999,-0.000358398
0.8209029999999999,0.000531997
0.821978,-0.00021279900000000003
0.823052,5.5999756000000005e-05
0.8241259999999999,0.000223999
0.825201,-0.00026879800000000005
0.826275,0.000447998
0.8273499999999999,-0.00010639900000000001
0.8284239999999999,-0.00038079800000000006
0.829499,0.000632797
0.830573,-0.00021279900000000003
0.8316479999999999,-0.00048159700000000006
0.832722,0.0006663970000000001
0.833797,-0.000207199
0.8348709999999999,-0.00034159800000000003
0.835946,0.000543197
0.83702,-0.00021279900000000003
0.8380949999999999,8.959960800000002e-05
0.8391689999999999,0.000218399
0.840244,-0.000263198
0.841318,0.00048159700000000006
0.842393,-0.00010639900000000001
0.843467,-0.00038079800000000006
0.844542,0.0006495970000000001
0.8456159999999999,-0.000218399
0.846691,-0.00048719700000000003
0.847765,0.0006663970000000001
0.8488399999999999,-0.00021279900000000003
0.849914,-0.000330398
0.850988,0.000537597
0.852063,-0.000218399
0.8531369999999999,0.00010639900000000001
0.854212,0.000207199
0.855286,-0.000251998
0.8563609999999999,0.0005095970000000001
0.857435,-0.00011199900000000001
0.85851,-0.00039759800000000004
0.859584,0.000643997
0.860659,-0.00023519800000000002
0.861733,-0.0005095970000000001
0.8628079999999999,0.0006663970000000001
0.8638819999999999,-0.000223999
0.864957,-0.000335998
0.866031,0.0005263970000000001
0.8671059999999999,-0.00023519800000000002
0.86818,0.00011759900000000001
0.869255,0.000184799
0.8703289999999999,-0.000285598
0.871404,0.0005095970000000001
0.872478,-0.000128799
0.8735529999999999,-0.000408798
0.8746269999999999,0.0006663970000000001
0.875702,-0.00023519800000000002
0.876776,-0.000515197
0.8778499999999999,0.0006663970000000001
0.878925,-0.00023519800000000002
0.879999,-0.000335998
0.8810739999999999,0.0005095970000000001
0.8821479999999999,-0.000257598
0.883223,0.00011759900000000001
0.884297,0.00015119900000000003
0.8853719999999999,-0.00031919800000000003
0.886446,0.00048719700000000003
0.887521,-0.00016239900000000003
0.8885949999999999,-0.00044239800000000004
0.88967,0.000643997
0.890744,-0.000257598
0.8918189999999999,-0.000531997
0.8928929999999999,0.000660797
0.893968,-0.00024639800000000005
0.895042,-0.000330398
0.8961169999999999,0.000503997
0.897191,-0.000251998
0.898266,0.00013439900000000003
0.8993399999999999,0.000139999
0.900415,-0.000313598
0.901489,0.0005095970000000001
0.9025639999999999,-0.00016239900000000003
0.9036379999999999,-0.00044239800000000004
0.904713,0.000655197
0.905787,-0.00024639800000000005
0.9068609999999999,-0.0005263970000000001
0.907936,0.000660797
0.90901,-0.00024079800000000002
0.9100849999999999,-0.000313598
0.9111589999999999,0.000498397
0.912234,-0.00024639800000000005
0.913308,0.000156799
0.914383,0.00013439900000000003
0.915457,-0.00030799800000000003
0.916532,0.000531997
0.9176059999999999,-0.000156799
0.918681,-0.000436798
0.919755,0.0006663970000000001
0.9208299999999999,-0.00024079800000000002
0.921904,-0.000515197
0.922979,0.0006663970000000001
0.924053,-0.00023519800000000002
0.925128,-0.000296798
0.926202,0.00048719700000000003
0.9272769999999999,-0.000251998
0.9283509999999999,0.00017359900000000003
0.929426,0.00011759900000000001
0.9305,-0.00031919800000000003
0.9315749999999999,0.000531997
0.932649,-0.000179199
0.933724,-0.000447998
0.9347979999999999,0.000660797
0.9358719999999999,-0.00024639800000000005
0.936947,-0.0005263970000000001
0.938021,0.000655197
0.9390959999999999,-0.00024079800000000002
0.94017,-0.000291198
0.941245,0.000470397
0.9423189999999999,-0.000257598
0.943394,0.000179199
0.944468,0.00010079900000000001
0.9455429999999999,-0.00032479800000000006
0.9466169999999999,0.000531997
0.947692,-0.00019039900000000003
0.948766,-0.00045919700000000006
0.9498409999999999,0.000643997
0.950915,-0.000274398
0.95199,-0.0006215970000000001
0.9530639999999999,0.00037519800000000004
0.954139,-0.00038079800000000006
0.955213,-0.00032479800000000006
0.9562879999999999,0.000436798
0.9573619999999999,-0.00026879800000000005
0.958437,0.00016239900000000003
0.959511,6.159973199999999e-05
0.9605859999999999,-0.000335998
0.96166,0.000531997
0.962735,-0.000184799
0.9638089999999999,-0.00044239800000000004
0.9648829999999999,0.000677597
0.965958,-0.00022959800000000002
0.967032,-0.0004927970000000001
0.9681069999999999,0.0006663970000000001
0.969181,-0.000218399
0.970256,-0.00023519800000000002
0.9713299999999999,0.00046479700000000003
0.972405,-0.00022959800000000002
0.973479,0.00024079800000000002
0.9745539999999999,8.959960800000002e-05
0.9756279999999999,-0.000313598
0.976703,0.0005711970000000001
0.977777,-0.00017359900000000003
0.9788519999999999,-0.00044239800000000004
0.979926,0.000677597
0.9810009999999999,-0.000223999
0.9820749999999999,-0.0004927970000000001
0.98315,0.000660797
0.984224,-0.000218399
0.9852989999999999,-0.000223999
0.9863729999999999,0.000447998
0.987448,-0.00023519800000000002
0.9885219999999999,0.000251998
0.989597,7.279968000000001e-05
0.990671,-0.000313598
0.991745,0.000582397
0.9928199999999999,-0.000184799
0.9938939999999999,-0.000447998
0.994969,0.000677597
0.9960429999999999,-0.00022959800000000002
0.997118,-0.0004927970000000001
0.998192,0.0006495970000000001
0.9992669999999999,-0.000223999
1.000341,-0.000207199
1.0014159999999999,0.00043119800000000004
1.0024899999999999,-0.00024639800000000005
1.003565,0.000263198
1.004639,5.5999756000000005e-05
1.005714,-0.00032479800000000006
1.006788,0.000582397
1.007863,-0.000195999
1.008937,-0.000470397
1.010012,0.000677597
1.011086,-0.00024639800000000005
1.0121609999999999,-0.0005095970000000001
1.0132349999999999,0.000632797
1.01431,-0.00024079800000000002
1.015384,-0.000207199
1.016459,0.000408798
1.017533,-0.000257598
1.018608,0.000274398
1.019682,2.7999878000000003e-05
1.020756,-0.00034159800000000003
1.021831,0.000582397
1.022905,-0.000207199
1.02398,-0.0004759970000000001
1.025054,0.000677597
1.0261289999999998,-0.00024079800000000002
1.0272029999999999,-0.000498397
1.028278,0.0006383970000000001
1.029352,-0.00023519800000000002
1.030427,-0.000179199
1.031501,0.00039759800000000004
1.032576,-0.000257598
1.03365,0.00030239800000000005
1.034725,2.2399902000000004e-05
1.035799,-0.00034159800000000003
1.0368739999999999,0.0006047970000000001
1.0379479999999999,-0.000207199
1.039023,-0.0004759970000000001
1.040097,0.0006831970000000001
1.041172,-0.00023519800000000002
1.042246,-0.00048719700000000003
1.043321,0.000643997
1.044395,-0.00023519800000000002
1.04547,-0.000156799
1.046544,0.00037519800000000004
1.047618,-0.00026879800000000005
1.0486929999999999,0.000313598
1.049767,-5.5999750000000005e-06
1.050842,-0.000358398
1.0519159999999999,0.000599197
1.052991,-0.000223999
1.054065,-0.0004927970000000001
1.05514,0.000677597
1.056214,-0.00024639800000000005
1.057289,-0.0004927970000000001
1.058363,0.000632797
1.0594379999999999,-0.00023519800000000002
1.060512,-0.000145599
1.061587,0.000369598
1.0626609999999999,-0.000263198
1.063736,0.000335998
1.06481,-5.5999750000000005e-06
1.065885,-0.00035279800000000003
1.066959,0.000610397
1.068034,-0.000218399
1.069108,-0.0004927970000000001
1.0701829999999999,0.0006831970000000001
1.071257,-0.00023519800000000002
1.0723319999999998,-0.0004759970000000001
1.0734059999999999,0.000632797
1.074481,-0.000218399
1.075555,-0.00011759900000000001
1.076629,0.000369598
1.077704,-0.00024079800000000002
1.078778,0.00036399800000000003
1.079853,0.0
1.080927,-0.000330398
1.082002,0.0006495970000000001
1.083076,-0.00019039900000000003
1.0841509999999999,-0.00048719700000000003
1.0852249999999999,0.000677597
1.0863,-0.000251998
1.0873739999999998,-0.00048719700000000003
1.088449,0.000610397
1.089523,-0.00024639800000000005
1.090598,-0.00011759900000000001
1.091672,0.00034159800000000003
1.092747,-0.000274398
1.093821,0.00036399800000000003
1.0948959999999999,-3.9199832000000005e-05
1.0959699999999999,-0.000369598
1.097045,0.000627197
1.0981189999999998,-0.00023519800000000002
1.099194,-0.0005095970000000001
1.100268,0.000688796
1.101343,-0.00024639800000000005
1.102417,-0.000470397
1.103492,0.0006159970000000001
1.104566,-0.00024079800000000002
1.1056409999999999,-8.959960800000002e-05
1.106715,0.00032479800000000006
1.107789,-0.000279998
1.1088639999999998,0.00038079800000000006
1.1099379999999999,-4.479980400000001e-05
1.111013,-0.00037519800000000004
1.112087,0.000632797
1.113162,-0.00024079800000000002
1.114236,-0.000520797
1.115311,0.000688796
1.116385,-0.000251998
1.11746,-0.000470397
1.118534,0.0006047970000000001
1.1196089999999999,-0.00024639800000000005
1.1206829999999999,-6.7199712e-05
1.121758,0.00030799800000000003
1.122832,-0.000285598
1.123907,0.00039759800000000004
1.124981,-6.7199712e-05
1.126056,-0.000391998
1.12713,0.0006495970000000001
1.128205,-0.00024079800000000002
1.129279,-0.000520797
1.1303539999999999,0.0006943960000000001
1.1314279999999999,-0.00024639800000000005
1.132503,-0.00045359800000000004
1.133577,0.000610397
1.134652,-0.00024639800000000005
1.135726,-4.479980400000001e-05
1.1368,0.00030239800000000005
1.137875,-0.000279998
1.138949,0.00042559800000000007
1.140024,-6.159973199999999e-05
1.141098,-0.00038079800000000006
1.1421729999999999,0.000655197
1.143247,-0.00024079800000000002
1.1443219999999998,-0.000520797
1.1453959999999999,0.000699996
1.146471,-0.00024639800000000005
1.147545,-0.00044239800000000004
1.14862,0.0006047970000000001
1.149694,-0.00024639800000000005
1.150769,-2.2399902000000004e-05
1.151843,0.000285598
1.1529179999999999,-0.000285598
1.153992,0.000436798
1.1550669999999998,-8.3999632e-05
1.1561409999999999,-0.000391998
1.157216,0.000660797
1.15829,-0.00024639800000000005
1.159365,-0.0005263970000000001
1.160439,0.000699996
1.161514,-0.00024639800000000005
1.162588,-0.00043119800000000004
1.163663,0.000587997
1.164737,-0.00024639800000000005
1.165811,0.0
1.1668859999999999,0.000263198
1.1679599999999999,-0.000291198
1.169035,0.000447998
1.1701089999999998,-9.5199592e-05
1.171184,-0.00039759800000000004
1.172258,0.000660797
1.173333,-0.00024639800000000005
1.174407,-0.0005263970000000001
1.175482,0.0006943960000000001
1.176556,-0.00024639800000000005
1.1776309999999999,-0.00041999800000000004
1.178705,0.000582397
1.17978,-0.00024639800000000005
1.1808539999999998,1.1199951000000002e-05
1.181929,0.000251998
1.183003,-0.000291198
1.184078,0.00045359800000000004
1.185152,-0.00010639900000000001
1.186227,-0.00040319800000000007
1.187301,0.000655197
1.1883759999999999,-0.000251998
1.18945,-0.000531997
1.190525,0.0006831970000000001
1.1915989999999999,-0.000251998
1.1926729999999999,-0.00041999800000000004
1.193748,0.0005543970000000001
1.194822,-0.000257598
1.195897,2.2399902000000004e-05
1.196971,0.00023519800000000002
1.198046,-0.000291198
1.19912,0.00046479700000000003
1.200195,-0.00010639900000000001
1.201269,-0.00039759800000000004
1.2023439999999999,0.0006663970000000001
1.2034179999999999,-0.00024079800000000002
1.204493,-0.000520797
1.205567,0.0006831970000000001
1.206642,-0.000251998
1.207716,-0.00039759800000000004
1.208791,0.000559997
1.209865,-0.00024639800000000005
1.21094,4.479980400000001e-05
1.212014,0.00021279900000000003
1.2130889999999999,-0.000296798
1.2141629999999999,0.000470397
1.215238,-0.00012319900000000002
1.2163119999999998,-0.000414398
1.217387,0.000655197
1.218461,-0.000251998
1.219535,-0.0005263970000000001
1.22061,0.0006831970000000001
1.221684,-0.00023519800000000002
1.222759,-0.00037519800000000004
1.223833,0.000559997
1.2249079999999999,-0.00022959800000000002
1.225982,7.279968000000001e-05
1.2270569999999998,0.000218399
1.2281309999999999,-0.000285598
1.229206,0.000498397
1.23028,-0.00011199900000000001
1.231355,-0.00039759800000000004
1.232429,0.000671997
1.233504,-0.00023519800000000002
1.234578,-0.000515197
1.235653,0.000688796
1.236727,-0.00023519800000000002
1.2378019999999998,-0.00036399800000000003
1.2388759999999999,0.0005543970000000001
1.239951,-0.00024079800000000002
1.241025,8.3999632e-05
1.2421,0.000195999
1.243174,-0.000291198
1.244249,0.000498397
1.245323,-0.000128799
1.246397,-0.000414398
1.247472,0.0006663970000000001
1.248546,-0.00024639800000000005
1.2496209999999999,-0.0005263970000000001
1.250695,0.0006831970000000001
1.25177,-0.00024079800000000002
1.2528439999999998,-0.000358398
1.253919,0.000537597
1.254993,-0.00024639800000000005
1.256068,0.00010639900000000001
1.257142,0.000179199
1.258217,-0.00030239800000000005
1.259291,0.0005095970000000001
1.2603659999999999,-0.000145599
1.26144,-0.000414398
1.262515,0.000671997
1.2635889999999999,-0.000251998
1.264664,-0.0005263970000000001
1.265738,0.000677597
1.266813,-0.00024079800000000002
1.267887,-0.00035279800000000003
1.268962,0.0005263970000000001
1.270036,-0.000251998
1.2711109999999999,0.00011759900000000001
1.272185,0.000167999
1.273259,-0.00030799800000000003
1.2743339999999999,0.000515197
1.2754079999999999,-0.00015119900000000003
1.276483,-0.00042559800000000007
1.2775569999999998,0.000671997
1.278632,-0.00024639800000000005
1.279706,-0.0005263970000000001
1.280781,0.0006831970000000001
1.281855,-0.00024079800000000002
1.28293,-0.000335998
1.284004,0.000520797
1.2850789999999999,-0.00024639800000000005
1.2861529999999999,0.000139999
1.287228,0.000156799
1.2883019999999998,-0.00030239800000000005
1.289377,0.0005263970000000001
1.290451,-0.000156799
1.291526,-0.00043119800000000004
1.2926,0.000677597
1.293675,-0.00024639800000000005
1.294749,-0.0005263970000000001
1.2958239999999999,0.000677597
1.2968979999999999,-0.00024079800000000002
1.297973,-0.00032479800000000006
1.2990469999999998,0.000515197
1.300122,-0.00024639800000000005
1.301196,0.000156799
1.30227,0.00015119900000000003
1.303345,-0.00030239800000000005
1.304419,0.000543197
1.305494,-0.00016239900000000003
1.306568,-0.000436798
1.3076429999999999,0.0006831970000000001
1.308717,-0.00024639800000000005
1.3097919999999998,-0.0005263970000000001
1.3108659999999999,0.000677597
1.311941,-0.00023519800000000002
1.313015,-0.000296798
1.31409,0.000498397
1.315164,-0.00024639800000000005
1.316239,0.000184799
1.317313,0.00012319900000000002
1.318388,-0.00030799800000000003
1.319462,0.0005543970000000001
1.3205369999999998,-0.00017359900000000003
1.3216109999999999,-0.00044239800000000004
1.322686,0.0006831970000000001
1.32376,-0.00024639800000000005
1.324835,-0.0005263970000000001
1.325909,0.000677597
1.326984,-0.00023519800000000002
1.328058,-0.000285598
1.329133,0.00048719700000000003
1.330207,-0.00024639800000000005
1.331281,0.000195999
1.3323559999999999,0.00011199900000000001
1.33343,-0.000313598
1.3345049999999998,0.0005543970000000001
1.3355789999999998,-0.000184799
1.336654,-0.00045359800000000004
1.337728,0.0006831970000000001
1.338803,-0.000251998
1.339877,-0.000531997
1.340952,0.000671997
1.342026,-0.00024079800000000002
1.3431009999999999,-0.000279998
1.344175,0.0004759970000000001
1.3452499999999998,-0.000251998
1.3463239999999999,0.00021279900000000003
1.347399,0.00010079900000000001
1.348473,-0.00031919800000000003
1.349548,0.000565597
1.350622,-0.000184799
1.351697,-0.00045919700000000006
1.352771,0.000688796
1.3538459999999999,-0.00024639800000000005
1.35492,-0.0005263970000000001
1.3559949999999998,0.000671997
1.3570689999999999,-0.00023519800000000002
1.358144,-0.000263198
1.359218,0.00046479700000000003
1.360293,-0.000251998
1.361367,0.00022959800000000002
1.362441,8.3999632e-05
1.363516,-0.00032479800000000006
1.36459,0.0005767970000000001
1.365665,-0.00019039900000000003
1.366739,-0.00045359800000000004
1.3678139999999999,0.000688796
1.3688879999999999,-0.00024639800000000005
1.369963,-0.000520797
1.3710369999999998,0.0006663970000000001
1.372112,-0.00024079800000000002
1.373186,-0.00024639800000000005
1.374261,0.00045359800000000004
1.375335,-0.000257598
1.37641,0.00024639800000000005
1.377484,6.7199712e-05
1.3785589999999999,-0.000330398
1.3796329999999999,0.000587997
1.380708,-0.00020159900000000003
1.3817819999999998,-0.000470397
1.382857,0.000688796
1.383931,-0.000251998
1.385006,-0.000520797
1.38608,0.000660797
1.387155,-0.00024079800000000002
1.388229,-0.000223999
1.3893039999999999,0.00044239800000000004
1.390378,-0.000257598
1.3914529999999998,0.00026879800000000005
1.3925269999999998,5.0399780000000004e-05
1.3936009999999999,-0.000330398
1.394676,0.0005935970000000001
1.39575,-0.000207199
1.396825,-0.0004759970000000001
1.397899,0.0006943960000000001
1.398974,-0.000251998
1.400048,-0.000515197
1.401123,0.000660797
1.402197,-0.00024079800000000002
1.4032719999999999,-0.000207199
1.4043459999999999,0.00042559800000000007
1.405421,-0.000257598
1.4064949999999998,0.000291198
1.40757,3.9199832000000005e-05
1.408644,-0.00034159800000000003
1.409719,0.0006047970000000001
1.410793,-0.00021279900000000003
1.411868,-0.00048159700000000006
1.412942,0.0006943960000000001
1.4140169999999999,-0.00024639800000000005
1.4150909999999999,-0.0005095970000000001
1.416166,0.000655197
1.4172399999999998,-0.00024079800000000002
1.418315,-0.000184799
1.419389,0.00040319800000000007
1.420463,-0.000257598
1.421538,0.00030799800000000003
1.422612,2.2399902000000004e-05
1.423687,-0.00034159800000000003
1.424761,0.0006159970000000001
1.4258359999999999,-0.000218399
1.42691,-0.00048719700000000003
1.4279849999999998,0.000699996
1.4290589999999999,-0.00024639800000000005
1.430134,-0.000503997
1.431208,0.000655197
1.432283,-0.00023519800000000002
1.433357,-0.00016239900000000003
1.434432,0.00039759800000000004
1.435506,-0.000263198
1.4365809999999999,0.00032479800000000006
1.437655,5.5999750000000005e-06
1.4387299999999998,-0.00035279800000000003
1.4398039999999999,0.0006215970000000001
1.440879,-0.000223999
1.441953,-0.0004927970000000001
1.443028,0.000699996
1.444102,-0.00024639800000000005
1.445177,-0.000498397
1.446251,0.000643997
1.447325,-0.00024079800000000002
1.4484,-0.00015119900000000003
1.449474,0.00038079800000000006
1.4505489999999999,-0.00026879800000000005
1.4516229999999999,0.00034159800000000003
1.452698,-5.5999750000000005e-06
1.4537719999999998,-0.000358398
1.454847,0.000627197
1.455921,-0.000223999
1.456996,-0.000503997
1.45807,0.000699996
1.459145,-0.00024639800000000005
1.460219,-0.0004927970000000001
1.4612939999999999,0.0006383970000000001
1.462368,-0.00024079800000000002
1.4634429999999998,-0.000128799
1.4645169999999998,0.000358398
1.465592,-0.00026879800000000005
1.466666,0.000358398
1.467741,-1.6799928e-05
1.468815,-0.00036399800000000003
1.46989,0.000632797
1.470964,-0.00022959800000000002
1.4720389999999999,-0.000503997
1.473113,0.000699996
1.474187,-0.00024639800000000005
1.4752619999999999,-0.00048719700000000003
1.4763359999999999,0.000632797
1.477411,-0.00024079800000000002
1.4784849999999998,-0.00011199900000000001
1.47956,0.00035279800000000003
1.480634,-0.00026879800000000005
1.481709,0.000369598
1.482783,-3.3599856e-05
1.483858,-0.00036399800000000003
1.484932,0.0006383970000000001
1.4860069999999999,-0.00023519800000000002
1.4870809999999999,-0.0005095970000000001
1.488156,0.000699996
1.4892299999999998,-0.00024639800000000005
1.490305,-0.0004759970000000001
1.491379,0.000627197
1.492454,-0.00024079800000000002
1.493528,-9.5199592e-05
1.494603,0.00034159800000000003
1.495677,-0.00026879800000000005
1.4967519999999999,0.00038639800000000004
1.4978259999999999,-4.479980400000001e-05
1.498901,-0.00037519800000000004
1.4999749999999998,0.000643997
1.498901,-0.00023519800000000002
1.4978259999999999,-0.000515197
1.4967519999999999,0.000699996
1.495677,-0.00024639800000000005
1.494603,-0.000470397
1.493528,0.0006215970000000001
1.492454,-0.00024079800000000002
1.491379,-7.279968000000001e-05
1.490305,0.00032479800000000006
1.4892299999999998,-0.000274398
1.488156,0.00040319800000000007
1.4870809999999999,-5.5999756000000005e-05
1.4860069999999999,-0.00038079800000000006
1.484932,0.0006495970000000001
1.483858,-0.00023519800000000002
1.482783,-0.000520797
1.481709,0.000699996
1.480634,-0.00024639800000000005
1.47956,-0.00046479700000000003
1.4784849999999998,0.0006159970000000001
1.477411,-0.00024079800000000002
1.4763359999999999,-5.5999756000000005e-05
1.4752619999999999,0.00030799800000000003
1.474187,-0.000274398
1.473113,0.000408798
1.4720389999999999,-6.7199712e-05
1.470964,-0.00038079800000000006
1.46989,0.0006495970000000001
1.468815,-0.00024079800000000002
1.467741,-0.000520797
1.466666,0.000699996
1.465592,-0.00024639800000000005
1.4645169999999998,-0.00045359800000000004
1.4634429999999998,0.000610397
1.462368,-0.00024079800000000002
1.4612939999999999,-3.9199832000000005e-05
1.460219,0.000296798
1.459145,-0.000279998
1.45807,0.00042559800000000007
1.456996,-7.279968000000001e-05
1.455921,-0.00038639800000000004
1.454847,0.000655197
1.4537719999999998,-0.00024079800000000002
1.452698,-0.0005263970000000001
1.4516229999999999,0.000699996
1.4505489999999999,-0.00024079800000000002
1.449474,-0.00044239800000000004
1.4484,0.0006047970000000001
1.447325,-0.00024079800000000002
1.446251,-2.2399902000000004e-05
1.445177,0.000285598
1.444102,-0.000279998
1.443028,0.000436798
1.441953,-8.3999632e-05
1.440879,-0.00038079800000000006
1.4398039999999999,0.0006663970000000001
1.4387299999999998,-0.00024079800000000002
1.437655,-0.0005263970000000001
1.4365809999999999,0.0007055960000000001
1.435506,-0.00024079800000000002
1.434432,-0.00043119800000000004
1.433357,0.0006047970000000001
1.432283,-0.00024079800000000002
1.431208,0.0
1.430134,0.000274398
1.4290589999999999,-0.000279998
1.4279849999999998,0.00045919700000000006
1.42691,-8.3999632e-05
1.4258359999999999,-0.00039759800000000004
1.424761,0.000671997
1.423687,-0.00024639800000000005
1.422612,-0.0005263970000000001
1.421538,0.0007055960000000001
1.420463,-0.00024079800000000002
1.419389,-0.00042559800000000007
1.418315,0.0005935970000000001
1.4172399999999998,-0.00024079800000000002
1.416166,1.1199951000000002e-05
1.4150909999999999,0.000257598
1.4140169999999999,-0.000285598
1.412942,0.000470397
1.411868,-0.00010639900000000001
1.410793,-0.000408798
1.409719,0.000677597
1.408644,-0.000257598
1.40757,-0.000543197
1.4064949999999998,0.0007055960000000001
1.405421,-0.00024079800000000002
1.4043459999999999,-0.000414398
1.4032719999999999,0.0005767970000000001
1.402197,-0.00024639800000000005
1.401123,3.3599856e-05
1.400048,0.00023519800000000002
1.398974,-0.000291198
1.397899,0.00048159700000000006
1.396825,-0.00012319900000000002
1.39575,-0.000414398
1.394676,0.000677597
1.3936009999999999,-0.00024639800000000005
1.3925269999999998,-0.000543197
1.3914529999999998,0.0007055960000000001
1.390378,-0.00024639800000000005
1.3893039999999999,-0.00040319800000000007
1.388229,0.0005711970000000001
1.387155,-0.00024639800000000005
1.38608,6.159973199999999e-05
1.385006,0.000223999
1.383931,-0.000296798
1.382857,0.000498397
1.3817819999999998,-0.000128799
1.380708,-0.00041999800000000004
1.3796329999999999,0.000688796
1.3785589999999999,-0.000251998
1.377484,-0.000543197
1.37641,0.0007111960000000001
1.375335,-0.00024079800000000002
1.374261,-0.00038639800000000004
1.373186,0.000559997
1.372112,-0.000251998
1.3710369999999998,8.3999632e-05
1.369963,0.000207199
1.3688879999999999,-0.000296798
1.3678139999999999,0.0005095970000000001
1.366739,-0.00013439900000000003
1.365665,-0.00042559800000000007
1.36459,0.000688796
1.363516,-0.000251998
1.362441,-0.000543197
1.361367,0.000699996
1.360293,-0.00024079800000000002
1.359218,-0.000369598
1.358144,0.0005487970000000001
1.3570689999999999,-0.000251998
1.3559949999999998,9.5199592e-05
1.35492,0.000184799
1.3538459999999999,-0.000296798
1.352771,0.000537597
1.351697,-0.00013439900000000003
1.350622,-0.00043119800000000004
1.349548,0.0007055960000000001
1.348473,-0.00024079800000000002
1.347399,-0.000537597
1.3463239999999999,0.0007111960000000001
1.3452499999999998,-0.00024639800000000005
1.344175,-0.000358398
1.3431009999999999,0.000537597
1.342026,-0.000257598
1.340952,0.00012319900000000002
1.339877,0.00016239900000000003
1.338803,-0.00031919800000000003
1.337728,0.000543197
1.336654,-0.00016239900000000003
1.3355789999999998,-0.00045359800000000004
1.3345049999999998,0.000699996
1.33343,-0.000257598
1.3323559999999999,-0.0005543970000000001
1.331281,0.0007055960000000001
1.330207,-0.00024639800000000005
1.329133,-0.00034719800000000006
1.328058,0.000531997
1.326984,-0.000263198
1.325909,0.00015119900000000003
1.324835,0.000156799
1.32376,-0.000313598
1.322686,0.0005543970000000001
1.3216109999999999,-0.000179199
1.3205369999999998,-0.00045359800000000004
1.319462,0.0007111960000000001
1.318388,-0.000251998
1.317313,-0.0005543970000000001
1.316239,0.0007111960000000001
1.315164,-0.00024079800000000002
1.31409,-0.00032479800000000006
1.313015,0.000520797
1.311941,-0.000257598
1.3108659999999999,0.00017359900000000003
1.3097919999999998,0.000139999
1.308717,-0.00031919800000000003
1.3076429999999999,0.0005711970000000001
1.306568,-0.000184799
1.305494,-0.000470397
1.304419,0.0007055960000000001
1.303345,-0.000257598
1.30227,-0.0005487970000000001
1.301196,0.0007111960000000001
1.300122,-0.00024639800000000005
1.2990469999999998,-0.00030799800000000003
1.297973,0.000520797
1.2968979999999999,-0.000251998
1.2958239999999999,0.00020159900000000003
1.294749,0.00012319900000000002
1.293675,-0.000330398
1.2926,0.000582397
1.291526,-0.00019039900000000003
1.290451,-0.000470397
1.289377,0.000722396
1.2883019999999998,-0.000257598
1.287228,-0.0005543970000000001
1.2861529999999999,0.0007055960000000001
1.2850789999999999,-0.000251998
1.284004,-0.00030239800000000005
1.28293,0.0004927970000000001
1.281855,-0.00026879800000000005
1.280781,0.00021279900000000003
1.279706,9.5199592e-05
1.278632,-0.000335998
1.2775569999999998,0.0005935970000000001
1.276483,-0.000195999
1.2754079999999999,-0.0004759970000000001
1.2743339999999999,0.0007279960000000001
1.273259,-0.000257598
1.272185,-0.0005487970000000001
1.2711109999999999,0.0007055960000000001
1.270036,-0.00024639800000000005
1.268962,-0.000274398
1.267887,0.00048719700000000003
1.266813,-0.000263198
1.265738,0.00024079800000000002
1.264664,8.3999632e-05
1.2635889999999999,-0.00034159800000000003
1.262515,0.0006047970000000001
1.26144,-0.00020159900000000003
1.2603659999999999,-0.00048719700000000003
1.259291,0.000716796
1.258217,-0.000263198
1.257142,-0.0005543970000000001
1.256068,0.0007055960000000001
1.254993,-0.00024639800000000005
1.253919,-0.000263198
1.2528439999999998,0.00048719700000000003
1.25177,-0.000263198
1.250695,0.000257598
1.2496209999999999,7.839966400000001e-05
1.248546,-0.00034719800000000006
1.247472,0.0006159970000000001
1.246397,-0.00020159900000000003
1.245323,-0.0004927970000000001
1.244249,0.0007279960000000001
1.243174,-0.000257598
1.2421,-0.0005487970000000001
1.241025,0.000699996
1.239951,-0.00024639800000000005
1.2388759999999999,-0.00024639800000000005
1.2378019999999998,0.000470397
1.236727,-0.000263198
1.235653,0.00026879800000000005
1.234578,6.7199712e-05
1.233504,-0.00034719800000000006
1.232429,0.0006215970000000001
1.231355,-0.000207199
1.23028,-0.0004927970000000001
1.229206,0.0007279960000000001
1.2281309999999999,-0.000257598
1.2270569999999998,-0.000543197
1.225982,0.000699996
1.2249079999999999,-0.00024639800000000005
1.223833,-0.00023519800000000002
1.222759,0.00046479700000000003
1.221684,-0.00026879800000000005
1.22061,0.000279998
1.219535,5.5999756000000005e-05
1.218461,-0.00035279800000000003
1.217387,0.000627197
1.2163119999999998,-0.000218399
1.215238,-0.000503997
1.2141629999999999,0.0007279960000000001
1.2130889999999999,-0.000257598
1.212014,-0.000543197
1.21094,0.000699996
1.209865,-0.00024639800000000005
1.208791,-0.000223999
1.207716,0.00045919700000000006
1.206642,-0.000274398
1.205567,0.000291198
1.204493,4.479980400000001e-05
1.2034179999999999,-0.00035279800000000003
1.2023439999999999,0.000632797
1.201269,-0.000218399
1.200195,-0.000503997
1.19912,0.0007279960000000001
1.198046,-0.000257598
1.196971,-0.000543197
1.195897,0.0006943960000000001
1.194822,-0.00024639800000000005
1.193748,-0.00021279900000000003
1.1926729999999999,0.00044239800000000004
1.1915989999999999,-0.00026879800000000005
1.190525,0.000313598
1.18945,3.3599856e-05
1.1883759999999999,-0.000358398
1.187301,0.0006383970000000001
1.186227,-0.000218399
1.185152,-0.0005095970000000001
1.184078,0.000744796
1.183003,-0.000257598
1.181929,-0.000531997
1.1808539999999998,0.0006943960000000001
1.17978,-0.000251998
1.178705,-0.00020159900000000003
1.1776309999999999,0.00044239800000000004
1.176556,-0.000274398
1.175482,0.00032479800000000006
1.174407,2.2399902000000004e-05
1.173333,-0.00036399800000000003
1.172258,0.0006495970000000001
1.171184,-0.000223999
1.1701089999999998,-0.000515197
1.169035,0.0007335960000000001
1.1679599999999999,-0.000257598
1.1668859999999999,-0.000537597
1.165811,0.000688796
1.164737,-0.000251998
1.163663,-0.000184799
1.162588,0.00042559800000000007
1.161514,-0.000274398
1.160439,0.000335998
1.159365,1.6799928e-05
1.15829,-0.00036399800000000003
1.157216,0.0006495970000000001
1.1561409999999999,-0.00023519800000000002
1.1550669999999998,-0.000515197
1.153992,0.000739196
1.1529179999999999,-0.000257598
1.151843,-0.000531997
1.150769,0.0006831970000000001
1.149694,-0.000251998
1.14862,-0.000167999
1.147545,0.000414398
1.146471,-0.000274398
1.1453959999999999,0.00034719800000000006
1.1443219999999998,0.0
1.143247,-0.000369598
1.1421729999999999,0.000655197
1.141098,-0.00022959800000000002
1.140024,-0.000520797
1.138949,0.0007335960000000001
1.137875,-0.000251998
1.1368,-0.000520797
1.135726,0.0006831970000000001
1.134652,-0.00024079800000000002
1.133577,-0.00015119900000000003
1.132503,0.00039759800000000004
1.1314279999999999,-0.000279998
1.1303539999999999,0.00035279800000000003
1.129279,0.0
1.128205,-0.00036399800000000003
1.12713,0.000660797
1.126056,-0.00023519800000000002
1.124981,-0.000520797
1.123907,0.0007279960000000001
1.122832,-0.000251998
1.121758,-0.000515197
1.1206829999999999,0.0006663970000000001
1.1196089999999999,-0.00024079800000000002
1.118534,-0.000128799
1.11746,0.00038639800000000004
1.116385,-0.000279998
1.115311,0.00037519800000000004
1.114236,-2.2399902000000004e-05
1.113162,-0.00038079800000000006
1.112087,0.000660797
1.111013,-0.00024079800000000002
1.1099379999999999,-0.0005263970000000001
1.1088639999999998,0.0007279960000000001
1.107789,-0.000257598
1.106715,-0.0005095970000000001
1.1056409999999999,0.000660797
1.104566,-0.000251998
1.103492,-0.00011199900000000001
1.102417,0.00036399800000000003
1.101343,-0.000274398
1.100268,0.000408798
1.099194,-1.6799928e-05
1.0981189999999998,-0.000369598
1.097045,0.000671997
1.0959699999999999,-0.00022959800000000002
1.0948959999999999,-0.000520797
1.093821,0.0007279960000000001
1.092747,-0.00024079800000000002
1.091672,-0.0004927970000000001
1.090598,0.000643997
1.089523,-0.00024079800000000002
1.088449,-8.959960800000002e-05
1.0873739999999998,0.00034159800000000003
1.0863,-0.000279998
1.0852249999999999,0.00040319800000000007
1.0841509999999999,-3.9199832000000005e-05
1.083076,-0.00038639800000000004
1.082002,0.0006663970000000001
1.080927,-0.00024079800000000002
1.079853,-0.000531997
1.078778,0.000716796
1.077704,-0.00024639800000000005
1.076629,-0.0004759970000000001
1.075555,0.000643997
1.074481,-0.00024079800000000002
1.0734059999999999,-6.159973199999999e-05
1.0723319999999998,0.000335998
1.071257,-0.000274398
1.0701829999999999,0.000414398
1.069108,-5.5999756000000005e-05
1.068034,-0.00038639800000000004
1.066959,0.0006663970000000001
1.065885,-0.00024079800000000002
1.06481,-0.000520797
1.063736,0.000716796
1.0626609999999999,-0.00024079800000000002
1.061587,-0.00045919700000000006
1.060512,0.000627197
1.0594379999999999,-0.00024079800000000002
1.058363,-4.479980400000001e-05
1.057289,0.00030799800000000003
1.056214,-0.000279998
1.05514,0.00042559800000000007
1.054065,-6.7199712e-05
1.052991,-0.00038639800000000004
1.0519159999999999,0.0006663970000000001
1.050842,-0.00024639800000000005
1.049767,-0.000531997
1.0486929999999999,0.000716796
1.047618,-0.00024079800000000002
1.046544,-0.00045359800000000004
1.04547,0.0006159970000000001
1.044395,-0.00024079800000000002
1.043321,-2.7999878000000003e-05
1.042246,0.000296798
1.041172,-0.000279998
1.040097,0.000436798
1.039023,-8.3999632e-05
1.0379479999999999,-0.000391998
1.0368739999999999,0.000660797
1.035799,-0.00024639800000000005
1.034725,-0.000531997
1.03365,0.0007055960000000001
1.032576,-0.00024639800000000005
1.031501,-0.00044239800000000004
1.030427,0.0005935970000000001
1.029352,-0.00024079800000000002
1.028278,-1.1199951000000002e-05
1.0272029999999999,0.00026879800000000005
1.0261289999999998,-0.000279998
1.025054,0.00044239800000000004
1.02398,-8.959960800000002e-05
1.022905,-0.00039759800000000004
1.021831,0.000660797
1.020756,-0.00024079800000000002
1.019682,-0.0005263970000000001
1.018608,0.0006943960000000001
1.017533,-0.00024079800000000002
1.016459,-0.00042559800000000007
1.015384,0.000582397
1.01431,-0.00024079800000000002
1.0132349999999999,5.5999750000000005e-06
1.0121609999999999,0.000257598
1.011086,-0.000285598
1.010012,0.00045359800000000004
1.008937,-0.00010079900000000001
1.007863,-0.00040319800000000007
1.006788,0.000660797
1.005714,-0.00024639800000000005
1.004639,-0.0005263970000000001
1.003565,0.000688796
1.0024899999999999,-0.00024079800000000002
1.0014159999999999,-0.000414398
1.000341,0.0005711970000000001
0.9992669999999999,-0.00024079800000000002
0.998192,2.7999878000000003e-05
0.997118,0.00024079800000000002
0.9960429999999999,-0.000285598
0.994969,0.00046479700000000003
0.9938939999999999,-0.00011199900000000001
0.9928199999999999,-0.00040319800000000007
0.991745,0.000660797
0.990671,-0.00024079800000000002
0.989597,-0.0005263970000000001
0.9885219999999999,0.000688796
0.987448,-0.00024079800000000002
0.9863729999999999,-0.00040319800000000007
0.9852989999999999,0.000565597
0.984224,-0.00024079800000000002
0.98315,5.0399780000000004e-05
0.9820749999999999,0.000223999
0.9810009999999999,-0.000291198
0.979926,0.0004759970000000001
0.9788519999999999,-0.00011759900000000001
0.977777,-0.000408798
0.976703,0.0006663970000000001
0.9756279999999999,-0.00024639800000000005
0.9745539999999999,-0.000531997
0.973479,0.0006831970000000001
0.972405,-0.00024079800000000002
0.9713299999999999,-0.00038639800000000004
0.970256,0.0005543970000000001
0.969181,-0.00024079800000000002
0.9681069999999999,6.159973199999999e-05
0.967032,0.00021279900000000003
0.965958,-0.000291198
0.9648829999999999,0.00048719700000000003
0.9638089999999999,-0.000128799
0.962735,-0.000408798
0.96166,0.0006663970000000001
0.9605859999999999,-0.00024639800000000005
0.959511,-0.000537597
0.958437,0.0006831970000000001
0.9573619999999999,-0.00024639800000000005
0.9562879999999999,-0.00037519800000000004
0.955213,0.000543197
0.954139,-0.00024639800000000005
0.9530639999999999,8.3999632e-05
0.95199,0.00019039900000000003
0.950915,-0.000291198
0.9498409999999999,0.0004927970000000001
0.948766,-0.00013439900000000003
0.947692,-0.000414398
0.9466169999999999,0.0006663970000000001
0.9455429999999999,-0.000251998
0.944468,-0.000531997
0.943394,0.0006831970000000001
0.9423189999999999,-0.00024079800000000002
0.941245,-0.00036399800000000003
0.94017,0.000537597
0.9390959999999999,-0.00024639800000000005
0.938021,9.5199592e-05
0.936947,0.000184799
0.9358719999999999,-0.000296798
0.9347979999999999,0.0005095970000000001
0.933724,-0.000139999
0.932649,-0.00041999800000000004
0.9315749999999999,0.0006663970000000001
0.9305,-0.00024639800000000005
0.929426,-0.000531997
0.9283509999999999,0.0006831970000000001
0.9272769999999999,-0.00022959800000000002
0.926202,-0.00034719800000000006
0.925128,0.000531997
0.924053,-0.00024079800000000002
0.922979,0.00011759900000000001
0.921904,0.00017359900000000003
0.9208299999999999,-0.000296798
0.919755,0.0005095970000000001
0.918681,-0.000145599
0.9176059999999999,-0.00042559800000000007
0.916532,0.000671997
0.915457,-0.00024079800000000002
0.914383,-0.000531997
0.913308,0.000677597
0.912234,-0.00023519800000000002
0.9111589999999999,-0.000335998
0.9100849999999999,0.0005263970000000001
0.90901,-0.00024079800000000002
0.907936,0.00013439900000000003
0.9068609999999999,0.000167999
0.905787,-0.000296798
0.904713,0.000515197
0.9036379999999999,-0.00015119900000000003
0.9025639999999999,-0.00041999800000000004
0.901489,0.0006663970000000001
0.900415,-0.00023519800000000002
0.8993399999999999,-0.000520797
0.898266,0.000677597
0.897191,-0.000223999
0.8961169999999999,-0.00032479800000000006
0.895042,0.000515197
0.893968,-0.00023519800000000002
0.8928929999999999,0.00012319900000000002
0.8918189999999999,0.000156799
0.890744,-0.000291198
0.88967,0.00048159700000000006
0.8885949999999999,-0.00015119900000000003
0.887521,-0.00041999800000000004
0.886446,0.000627197
0.8853719999999999,-0.00023519800000000002
0.884297,-0.000520797
0.883223,0.0006495970000000001
0.8821479999999999,-0.00022959800000000002
0.8810739999999999,-0.00032479800000000006
0.879999,0.000498397
0.878925,-0.00024079800000000002
0.8778499999999999,0.00011199900000000001
0.876776,0.000139999
0.875702,-0.000296798
0.8746269999999999,0.000470397
0.8735529999999999,-0.00016239900000000003
0.872478,-0.00041999800000000004
0.871404,0.0006159970000000001
0.8703289999999999,-0.00023519800000000002
0.869255,-0.0005095970000000001
0.86818,0.0006383970000000001
0.8671059999999999,-0.000218399
0.866031,-0.00030239800000000005
0.864957,0.0004927970000000001
0.8638819999999999,-0.000223999
0.8628079999999999,0.000128799
0.861733,0.000139999
0.860659,-0.000285598
0.859584,0.00046479700000000003
0.85851,-0.00015119900000000003
0.857435,-0.00040319800000000007
0.8563609999999999,0.0006047970000000001
0.855286,-0.000223999
0.854212,-0.0004927970000000001
0.8531369999999999,0.000627197
0.852063,-0.00020159900000000003
0.850988,-0.00030799800000000003
0.849914,0.00048159700000000006
0.8488399999999999,-0.000207199
0.847765,0.00010079900000000001
0.846691,0.000139999
0.8456159999999999,-0.000263198
0.844542,0.00045359800000000004
0.843467,-0.00013439900000000003
0.842393,-0.00038639800000000004
0.841318,0.000582397
0.840244,-0.00019039900000000003
0.8391689999999999,-0.0004759970000000001
0.8380949999999999,0.000610397
0.83702,-0.000167999
0.835946,-0.00030239800000000005
0.8348709999999999,0.0004759970000000001
0.833797,-0.00016239900000000003
0.832722,0.00010079900000000001
0.8316479999999999,0.00015119900000000003
0.830573,-0.00021279900000000003
0.829499,0.00042559800000000007
0.8284239999999999,-0.00010079900000000001
0.8273499999999999,-0.000358398
0.826275,0.0005543970000000001
0.825201,-0.00016239900000000003
0.8241259999999999,-0.00048159700000000006
0.823052,0.000587997
0.821978,-0.000145599
0.8209029999999999,-0.000313598
0.8198289999999999,0.00045359800000000004
0.818754,-0.00016239900000000003
0.81768,0.00010079900000000001
0.8166049999999999,0.00013439900000000003
0.815531,-0.00022959800000000002
0.814456,0.000414398
0.8133819999999999,-0.00012319900000000002
0.812307,-0.00038079800000000006
0.811233,0.000543197
0.8101579999999999,-0.000184799
0.8090839999999999,-0.000498397
0.808009,0.000559997
0.806935,-0.000167999
0.8058599999999999,-0.000313598
0.804786,0.00041999800000000004
0.803711,-0.000184799
0.8026369999999999,8.959960800000002e-05
0.801562,0.00010639900000000001
0.800488,-0.00024639800000000005
0.7994129999999999,0.000408798
0.7983389999999999,-0.00013439900000000003
0.797264,-0.000391998
0.79619,0.000531997
0.795115,-0.00019039900000000003
0.794041,-0.000498397
0.792967,0.0005487970000000001
0.7918919999999999,-0.000167999
0.7908179999999999,-0.000296798
0.789743,0.00040319800000000007
0.788669,-0.000179199
0.787594,0.00011199900000000001
0.78652,0.00010639900000000001
0.785445,-0.00023519800000000002
0.7843709999999999,0.000408798
0.783296,-0.000139999
0.782222,-0.00038079800000000006
0.7811469999999999,0.000537597
0.780073,-0.000179199
0.778998,-0.0004927970000000001
0.777924,0.0005487970000000001
0.776849,-0.00016239900000000003
0.775775,-0.000285598
0.7746999999999999,0.00039759800000000004
0.7736259999999999,-0.00017359900000000003
0.772551,0.000128799
0.771477,9.5199592e-05
0.7704019999999999,-0.00023519800000000002
0.769328,0.000436798
0.768253,-0.00012319900000000002
0.7671789999999999,-0.00038079800000000006
0.766104,0.0005543970000000001
0.76503,-0.00016239900000000003
0.7639549999999999,-0.00045919700000000006
0.7628809999999999,0.0005767970000000001
0.761807,-0.000128799
0.760732,-0.00023519800000000002
0.7596579999999999,0.00041999800000000004
0.758583,-0.000156799
0.757509,0.00016239900000000003
0.7564339999999999,8.3999632e-05
0.7553599999999999,-0.00024639800000000005
0.754285,0.000447998
0.753211,-0.000139999
0.7521359999999999,-0.00039759800000000004
0.751062,0.0005543970000000001
0.749987,-0.00017359900000000003
0.7489129999999999,-0.00048159700000000006
0.747838,0.000565597
0.746764,-0.000156799
0.7456889999999999,-0.00024079800000000002
0.7446149999999999,0.00039759800000000004
0.74354,-0.00017359900000000003
0.742466,0.00017359900000000003
0.7413909999999999,6.159973199999999e-05
0.740317,-0.000257598
0.739242,0.00045359800000000004
0.7381679999999999,-0.000145599
0.737093,-0.000414398
0.736019,0.000559997
0.734945,-0.00017359900000000003
0.7338699999999999,-0.00048719700000000003
0.732796,0.000565597
0.731721,-0.00016239900000000003
0.7306469999999999,-0.00023519800000000002
0.729572,0.00038079800000000006
0.728498,-0.000184799
0.7274229999999999,0.00019039900000000003
0.726349,4.479980400000001e-05
0.725274,-0.00026879800000000005
0.7242,0.00045919700000000006
0.723125,-0.00015119900000000003
0.722051,-0.00042559800000000007
0.720976,0.000559997
0.7199019999999999,-0.00017359900000000003
0.718827,-0.00048159700000000006
0.717753,0.000559997
0.7166779999999999,-0.00016239900000000003
0.715604,-0.000218399
0.714529,0.000369598
0.713455,-0.000184799
0.71238,0.00020159900000000003
0.711306,4.479980400000001e-05
0.710231,-0.000274398
0.7091569999999999,0.00046479700000000003
0.708083,-0.000156799
0.707008,-0.00043119800000000004
0.705934,0.000559997
0.704859,-0.000179199
0.703785,-0.00048159700000000006
0.70271,0.0005487970000000001
0.7016359999999999,-0.00017359900000000003
0.700561,-0.000207199
0.699487,0.00035279800000000003
0.6984119999999999,-0.00019039900000000003
0.697338,0.00021279900000000003
0.696263,2.7999878000000003e-05
0.695189,-0.000274398
0.694114,0.000470397
0.69304,-0.000156799
0.6919649999999999,-0.00043119800000000004
0.6908909999999999,0.000559997
0.689816,-0.00017359900000000003
0.688742,-0.000470397
0.6876669999999999,0.0005487970000000001
0.686593,-0.00016239900000000003
0.685518,-0.000184799
0.6844439999999999,0.00034159800000000003
0.683369,-0.00019039900000000003
0.682295,0.000218399
0.6812199999999999,0.0
0.6801459999999999,-0.000330398
0.679072,0.00042559800000000007
0.677997,-0.00017359900000000003
0.6769229999999999,-0.000436798
0.675848,0.000543197
0.674774,-0.000167999
0.6736989999999999,-0.00045919700000000006
0.6726249999999999,0.000531997
0.67155,-0.000156799
0.670476,-0.000167999
0.669401,0.000335998
0.668327,-0.000179199
0.667252,0.00023519800000000002
0.6661779999999999,1.1199951000000002e-05
0.665103,-0.00026879800000000005
0.664029,0.000470397
0.6629539999999999,-0.00015119900000000003
0.66188,-0.00043119800000000004
0.660805,0.0005543970000000001
0.659731,-0.00016239900000000003
0.658656,-0.000447998
0.657582,0.0005263970000000001
0.656507,-0.000156799
0.6554329999999999,-0.00015119900000000003
0.654358,0.00030799800000000003
0.653284,-0.000184799
0.6522089999999999,0.00024639800000000005
0.651135,-5.5999750000000005e-06
0.650061,-0.000285598
0.648986,0.000470397
0.6479119999999999,-0.00016239900000000003
0.646837,-0.00044239800000000004
0.645763,0.000543197
0.6446879999999999,-0.000167999
0.643614,-0.00044239800000000004
0.642539,0.000520797
0.641465,-0.000156799
0.64039,-0.000128799
0.639316,0.00030239800000000005
0.638241,-0.000184799
0.6371669999999999,0.000263198
0.636092,-1.1199951000000002e-05
0.635018,-0.000285598
0.6339429999999999,0.00048159700000000006
0.632869,-0.00016239900000000003
0.631794,-0.00044239800000000004
0.63072,0.0005543970000000001
0.629645,-0.00016239900000000003
0.628571,-0.000436798
0.6274959999999999,0.000520797
0.6264219999999999,-0.000156799
0.625347,-0.00011759900000000001
0.624273,0.000279998
0.6231979999999999,-0.00019039900000000003
0.622124,0.000274398
0.62105,-2.2399902000000004e-05
0.6199749999999999,-0.000296798
0.6189009999999999,0.00048719700000000003
0.617826,-0.00016239900000000003
0.616752,-0.000447998
0.6156769999999999,0.0005543970000000001
0.614603,-0.00016239900000000003
0.613528,-0.00042559800000000007
0.6124539999999999,0.000515197
0.611379,-0.00016239900000000003
0.610305,-9.5199592e-05
0.6092299999999999,0.00026879800000000005
0.6081559999999999,-0.000195999
0.607081,0.000291198
0.606007,-2.7999878000000003e-05
0.604932,-0.00030239800000000005
0.603858,0.0004927970000000001
0.602783,-0.000167999
0.6017089999999999,-0.00045919700000000006
0.600634,0.000559997
0.59956,-0.000167999
0.5984849999999999,-0.00041999800000000004
0.597411,0.000503997
0.596336,-0.000167999
0.595262,-7.279968000000001e-05
0.5941879999999999,0.000257598
0.593113,-0.000195999
0.592039,0.00030239800000000005
0.5909639999999999,-3.9199832000000005e-05
0.58989,-0.00030799800000000003
0.588815,0.000498397
0.587741,-0.000167999
0.586666,-0.00045919700000000006
0.585592,0.000559997
0.584517,-0.000167999
0.5834429999999999,-0.000408798
0.582368,0.000503997
0.581294,-0.00016239900000000003
0.5802189999999999,-6.159973199999999e-05
0.579145,0.00024079800000000002
0.57807,-0.00020159900000000003
0.576996,0.000313598
0.575921,-5.5999756000000005e-05
0.574847,-0.000313598
0.573772,0.000498397
0.5726979999999999,-0.00017359900000000003
0.571623,-0.00045919700000000006
0.570549,0.000559997
0.5694739999999999,-0.000156799
0.5684,-0.00039759800000000004
0.567326,0.0004927970000000001
0.566251,-0.000156799
0.5651769999999999,-3.3599856e-05
0.564102,0.00022959800000000002
0.563028,-0.00020159900000000003
0.5619529999999999,0.000330398
0.560879,-6.159973199999999e-05
0.559804,-0.00031919800000000003
0.55873,0.000498397
0.557655,-0.000167999
0.556581,-0.00046479700000000003
0.5555059999999999,0.0005543970000000001
0.5544319999999999,-0.000156799
0.553357,-0.00038639800000000004
0.552283,0.0004759970000000001
0.5512079999999999,-0.000156799
0.550134,-2.2399902000000004e-05
0.549059,0.00020159900000000003
0.5479849999999999,-0.00020159900000000003
0.54691,0.000335998
0.545836,-7.279968000000001e-05
0.5447609999999999,-0.00031919800000000003
0.5436869999999999,0.000503997
0.542612,-0.00016239900000000003
0.541538,-0.000447998
0.540463,0.0005711970000000001
0.539389,-0.000128799
0.538314,-0.00034159800000000003
0.5372399999999999,0.0004927970000000001
0.5361659999999999,-0.000139999
0.535091,1.6799928e-05
0.534017,0.00020159900000000003
0.532942,-0.000195999
0.531868,0.00035279800000000003
0.530793,-8.3999632e-05
0.5297189999999999,-0.000330398
0.528644,0.000503997
0.52757,-0.00017359900000000003
0.5264949999999999,-0.0004759970000000001
0.525421,0.000543197
0.524346,-0.00016239900000000003
0.523272,-0.000358398
0.522197,0.00045919700000000006
0.521123,-0.00015119900000000003
0.520048,1.6799928e-05
0.5189739999999999,0.000179199
0.517899,-0.00020159900000000003
0.516825,0.000358398
0.5157499999999999,-8.3999632e-05
0.514676,-0.00032479800000000006
0.513601,0.000520797
0.512527,-0.000156799
0.511452,-0.00045359800000000004
0.510378,0.0005711970000000001
0.509304,-0.00013439900000000003
0.5082289999999999,-0.00032479800000000006
0.507155,0.000470397
0.50608,-0.000139999
0.505006,5.0399780000000004e-05
0.503931,0.00017359900000000003
0.502857,-0.000195999
0.501782,0.00037519800000000004
0.5007079999999999,-9.5199592e-05
0.499633,-0.00034159800000000003
0.498559,0.0005095970000000001
0.497484,-0.00017359900000000003
0.49640999999999996,-0.00048719700000000003
0.49533499999999997,0.0005543970000000001
0.49426099999999995,-0.000156799
0.49318599999999996,-0.00037519800000000004
0.492112,0.00045919700000000006
0.491037,-0.000184799
0.489963,3.3599856e-05
0.488888,0.00015119900000000003
0.48781399999999997,-0.00024639800000000005
0.486739,0.00038079800000000006
0.48566499999999996,-0.00012319900000000002
0.48458999999999997,-0.00038639800000000004
0.483516,0.0005263970000000001
0.48244099999999995,-0.00019039900000000003
0.481367,-0.0005095970000000001
0.48029299999999997,0.000559997
0.479218,-0.00017359900000000003
0.47814399999999996,-0.00035279800000000003
0.47706899999999997,0.000447998
0.475995,-0.00017359900000000003
0.47491999999999995,5.0399780000000004e-05
0.473846,0.00013439900000000003
0.472771,-0.00023519800000000002
0.471697,0.00038639800000000004
0.470622,-0.00012319900000000002
0.46954799999999997,-0.00038079800000000006
0.468473,0.0005263970000000001
0.46739899999999995,-0.00017359900000000003
0.46632399999999996,-0.000503997
0.46525,0.000565597
0.464175,-0.00016239900000000003
0.463101,-0.000335998
0.462026,0.00044239800000000004
0.460952,-0.000167999
0.459877,7.839966400000001e-05
0.45880299999999996,0.00012319900000000002
0.45772799999999997,-0.00024079800000000002
0.456654,0.000408798
0.45557899999999996,-0.00012319900000000002
0.454505,-0.000391998
0.45343,0.000537597
0.452356,-0.000179199
0.45128199999999996,-0.000503997
0.45020699999999997,0.0005711970000000001
0.449133,-0.00016239900000000003
0.44805799999999996,-0.00031919800000000003
0.446984,0.00043119800000000004
0.445909,-0.00017359900000000003
0.444835,9.5199592e-05
0.44376,0.00010639900000000001
0.44268599999999997,-0.00024639800000000005
0.441611,0.000414398
0.44053699999999996,-0.000128799
0.43946199999999996,-0.00039759800000000004
0.438388,0.000537597
0.437313,-0.000179199
0.436239,-0.000503997
0.435164,0.000565597
0.43409,-0.00016239900000000003
0.433015,-0.00030239800000000005
0.43194099999999996,0.00041999800000000004
0.43086599999999997,-0.000179199
0.429792,0.00011199900000000001
0.42871699999999996,9.5199592e-05
0.427643,-0.00024639800000000005
0.426568,0.00041999800000000004
0.425494,-0.000139999
0.42441999999999996,-0.000391998
0.42334499999999997,0.000520797
0.422271,-0.00017359900000000003
0.42119599999999996,-0.00048719700000000003
0.420122,0.000543197
0.419047,-0.000156799
0.417973,-0.000279998
0.416898,0.000391998
0.41582399999999997,-0.000167999
0.414749,0.000128799
0.41367499999999996,8.3999632e-05
0.41259999999999997,-0.00023519800000000002
0.411526,0.00042559800000000007
0.41045099999999995,-0.00013439900000000003
0.409377,-0.000391998
0.408302,0.000537597
0.407228,-0.000167999
0.406153,-0.00048159700000000006
0.40507899999999997,0.0005487970000000001
0.404004,-0.00015119900000000003
0.40292999999999995,-0.000263198
0.40185499999999996,0.000391998
0.400781,-0.000167999
0.399706,0.000139999
0.398632,7.279968000000001e-05
0.397557,-0.00024079800000000002
0.396483,0.00043119800000000004
0.39540899999999995,-0.000139999
0.39433399999999996,-0.00039759800000000004
0.39326,0.000537597
0.392185,-0.00016239900000000003
0.391111,-0.0004759970000000001
0.390036,0.0005543970000000001
0.388962,-0.000145599
0.387887,-0.00024639800000000005
0.38681299999999996,0.00038639800000000004
0.38573799999999997,-0.000156799
0.384664,0.00016239900000000003
0.38358899999999996,7.279968000000001e-05
0.382515,-0.00022959800000000002
0.38144,0.000447998
0.380366,-0.00012319900000000002
0.379291,-0.00037519800000000004
0.37821699999999997,0.000565597
0.377142,-0.000139999
0.37606799999999996,-0.000447998
0.37499299999999997,0.0005711970000000001
0.373919,-0.00011759900000000001
0.372844,-0.00021279900000000003
0.37177,0.00042559800000000007
0.370695,-0.00011199900000000001
0.369621,0.00021279900000000003
0.368546,0.00010079900000000001
0.36747199999999997,-0.000218399
0.366398,0.00045359800000000004
0.365323,-0.00015119900000000003
0.364249,-0.00041999800000000004
0.363174,0.000520797
0.3621,-0.000184799
0.361025,-0.000498397
0.35995099999999997,0.0005263970000000001
0.358876,-0.000167999
0.357802,-0.000251998
0.35672699999999996,0.000358398
0.355653,-0.000179199
0.354578,0.000156799
0.353504,3.9199832000000005e-05
0.352429,-0.000263198
0.351355,0.00042559800000000007
0.35028,-0.000156799
0.34920599999999996,-0.000414398
0.34813099999999997,0.0005263970000000001
0.347057,-0.000179199
0.345982,-0.00048719700000000003
0.344908,0.0005263970000000001
0.343833,-0.00016239900000000003
0.342759,-0.00023519800000000002
0.341684,0.00034719800000000006
0.34060999999999997,-0.000179199
0.339536,0.00017359900000000003
0.338461,2.7999878000000003e-05
0.337387,-0.000263198
0.336312,0.000436798
0.335238,-0.000156799
0.334163,-0.00041999800000000004
0.33308899999999997,0.000531997
0.332014,-0.00017359900000000003
0.33094,-0.00048159700000000006
0.32986499999999996,0.000531997
0.328791,-0.00016239900000000003
0.327716,-0.000223999
0.326642,0.00034159800000000003
0.325567,-0.000179199
0.324493,0.00019039900000000003
0.323418,1.6799928e-05
0.32234399999999996,-0.000263198
0.32126899999999997,0.000436798
0.320195,-0.00016239900000000003
0.31911999999999996,-0.00042559800000000007
0.318046,0.0005263970000000001
0.316971,-0.00017359900000000003
0.315897,-0.0004759970000000001
0.314822,0.0005263970000000001
0.31374799999999997,-0.00016239900000000003
0.312673,-0.00020159900000000003
0.31159899999999996,0.000335998
0.310525,-0.000184799
0.30945,0.00020159900000000003
0.308376,1.6799928e-05
0.307301,-0.000263198
0.30622699999999997,0.000447998
0.305152,-0.00016239900000000003
0.30407799999999996,-0.00042559800000000007
0.30300299999999997,0.000537597
0.301929,-0.000167999
0.300854,-0.000470397
0.29978,0.0005263970000000001
0.298705,-0.000156799
0.297631,-0.00019039900000000003
0.296556,0.00032479800000000006
0.29548199999999997,-0.000179199
0.294407,0.00021279900000000003
0.293333,5.5999750000000005e-06
0.29225799999999996,-0.000274398
0.291184,0.00045359800000000004
0.290109,-0.00016239900000000003
0.289035,-0.000436798
0.28796,0.000537597
0.286886,-0.000167999
0.285811,-0.00046479700000000003
0.28473699999999996,0.000531997
0.283663,-0.000156799
0.282588,-0.00017359900000000003
0.281514,0.00031919800000000003
0.280439,-0.000179199
0.279365,0.00022959800000000002
0.27829,0.0
0.27721599999999996,-0.000279998
0.27614099999999997,0.000470397
0.275067,-0.000156799
0.273992,-0.000436798
0.272918,0.0005487970000000001
0.271843,-0.000156799
0.270769,-0.00045359800000000004
0.269694,0.000531997
0.26861999999999997,-0.00015119900000000003
0.267545,-0.00015119900000000003
0.266471,0.00031919800000000003
0.26539599999999997,-0.000167999
0.264322,0.000251998
0.263247,0.0
0.262173,-0.000274398
0.261098,0.00048159700000000006
0.260024,-0.00015119900000000003
0.258949,-0.00043119800000000004
0.25787499999999997,0.000565597
0.2568,-0.000156799
0.255726,-0.00044239800000000004
0.254652,0.000531997
0.253577,-0.00015119900000000003
0.252503,-0.000139999
0.251428,0.000291198
0.25035399999999997,-0.000195999
0.249279,0.00024639800000000005
0.24820499999999998,-3.3599856e-05
0.24713,-0.00030799800000000003
0.246056,0.00045919700000000006
0.24498099999999998,-0.00019039900000000003
0.24390699999999998,-0.0004759970000000001
0.242832,0.000531997
0.241758,-0.00019039900000000003
0.24068299999999998,-0.000470397
0.239609,0.000498397
0.238534,-0.000179199
0.23745999999999998,-0.000145599
0.23638499999999998,0.00026879800000000005
0.235311,-0.000207199
0.234236,0.000263198
0.23316199999999998,-2.2399902000000004e-05
0.232087,-0.000291198
0.231013,0.000498397
0.22993799999999998,-0.000156799
0.22886399999999998,-0.00044239800000000004
0.227789,0.0005711970000000001
0.226715,-0.00015119900000000003
0.22564099999999998,-0.00042559800000000007
0.224566,0.0005263970000000001
0.223492,-0.00015119900000000003
0.222417,-9.5199592e-05
0.22134299999999998,0.000274398
0.220268,-0.00019039900000000003
0.219194,0.000285598
0.21811899999999998,-3.3599856e-05
0.217045,-0.00030239800000000005
0.21597,0.00048719700000000003
0.214896,-0.00017359900000000003
0.21382099999999998,-0.00046479700000000003
0.212747,0.0005487970000000001
0.211672,-0.00017359900000000003
0.21059799999999998,-0.00044239800000000004
0.209523,0.0004927970000000001
0.208449,-0.00017359900000000003
0.207374,-0.00010639900000000001
0.20629999999999998,0.00024639800000000005
0.205225,-0.00021279900000000003
0.204151,0.000274398
0.20307599999999998,-6.159973199999999e-05
0.202002,-0.00032479800000000006
0.200927,0.000470397
0.199853,-0.00019039900000000003
0.19877799999999998,-0.00048719700000000003
0.197704,0.000531997
0.19663,-0.000184799
0.19555499999999998,-0.00044239800000000004
0.194481,0.00048719700000000003
0.193406,-0.000167999
0.192332,-7.839966400000001e-05
0.19125699999999998,0.000257598
0.190183,-0.000184799
0.189108,0.00030239800000000005
0.18803399999999998,-3.3599856e-05
0.186959,-0.000291198
0.185885,0.0005095970000000001
0.18481,-0.000128799
0.18373599999999998,-0.00040319800000000007
0.182661,0.0006215970000000001
0.181587,-6.159973199999999e-05
0.18051199999999998,-0.00037519800000000004
0.179438,0.000520797
0.178363,-9.5199592e-05
0.177289,1.1199951000000002e-05
0.17621399999999998,0.00032479800000000006
0.17514,-0.00010079900000000001
0.174065,0.00038639800000000004
0.172991,2.7999878000000003e-05
0.17191599999999999,-0.00022959800000000002
0.170842,0.000559997
0.169768,-6.7199712e-05
0.16869299999999998,-0.00036399800000000003
0.167619,0.0006047970000000001
0.166544,-0.00011199900000000001
0.16547,-0.000369598
0.16439499999999999,0.00048159700000000006
0.163321,-0.000156799
0.162246,-6.159973199999999e-05
0.16117199999999998,0.000218399
0.160097,-0.00020159900000000003
0.159023,0.000279998
0.157948,-7.839966400000001e-05
0.15687399999999999,-0.00031919800000000003
0.155799,0.00046479700000000003
0.154725,-0.00017359900000000003
0.15364999999999998,-0.00046479700000000003
0.152576,0.000531997
0.151501,-0.00016239900000000003
0.150427,-0.000391998
0.14935199999999998,0.00046479700000000003
0.148278,-0.000167999
0.147203,-5.5999756000000005e-05
0.14612899999999998,0.000195999
0.145054,-0.000218399
0.14398,0.000291198
0.142905,-8.959960800000002e-05
0.14183099999999998,-0.000335998
0.140757,0.00045359800000000004
0.139682,-0.00019039900000000003
0.13860799999999998,-0.00048159700000000006
0.137533,0.0005095970000000001
0.136459,-0.000179199
0.135384,-0.000408798
0.13430999999999998,0.00044239800000000004
0.133235,-0.00017359900000000003
0.132161,-4.479980400000001e-05
0.13108599999999998,0.000184799
0.130012,-0.000218399
0.128937,0.00030239800000000005
0.127863,-8.3999632e-05
0.12678799999999998,-0.000335998
0.125714,0.000470397
0.124639,-0.000184799
0.123565,-0.0004759970000000001
0.12248999999999999,0.000520797
0.121416,-0.000167999
0.12034099999999999,-0.000391998
0.119267,0.00044239800000000004
0.11819199999999999,-0.00017359900000000003
0.117118,-3.3599856e-05
0.116043,0.000179199
0.11496899999999999,-0.000218399
0.113894,0.000313598
0.11281999999999999,-9.5199592e-05
0.111746,-0.00034159800000000003
0.11067099999999999,0.000470397
0.109597,-0.000184799
0.108522,-0.0004759970000000001
0.107448,0.000520797
0.106373,-0.00017359900000000003
0.10529899999999999,-0.00038079800000000006
0.104224,0.00043119800000000004
0.10314999999999999,-0.000167999
0.102075,-1.1199951000000002e-05
0.101001,0.000167999
0.099926736,-0.000218399
0.098852256,0.00032479800000000006
0.09777777600000001,-9.5199592e-05
0.09670329600000001,-0.00034159800000000003
0.095628816,0.00048159700000000006
0.094554336,-0.00017359900000000003
0.093479848,-0.0004759970000000001
0.092405368,0.000531997
0.09133089600000001,-0.00016239900000000003
0.09025640800000001,-0.00036399800000000003
0.08918192800000001,0.000436798
0.088107448,-0.000167999
0.087032968,1.1199951000000002e-05
0.08595848,0.000156799
0.084884,-0.000218399
0.08380952800000001,0.00034159800000000003
0.08273504000000001,-0.00010079900000000001
0.08166056000000001,-0.00034719800000000006
0.08058607200000001,0.00048159700000000006
0.0795116,-0.000167999
0.07843712,-0.000470397
0.077362632,0.000531997
0.07628816000000001,-0.00016239900000000003
0.07521367200000001,-0.00035279800000000003
0.074139192,0.00043119800000000004
0.073064712,-0.00016239900000000003
0.071990232,2.2399902000000004e-05
0.070915752,0.000145599
0.069841264,-0.000218399
0.068766784,0.00035279800000000003
0.067692312,-0.00010079900000000001
0.066617824,-0.00034719800000000006
0.065543348,0.00048719700000000003
0.06446886,-0.000167999
0.063394384,-0.000470397
0.062319900000000004,0.000531997
0.06124542,-0.00016239900000000003
0.060170940000000006,-0.00034159800000000003
0.05909646,0.00041999800000000004
0.058021976,-0.00016239900000000003
0.056947496,4.479980400000001e-05
0.055873016000000005,0.00013439900000000003
0.054798532000000004,-0.000218399
0.053724056000000006,0.000358398
0.052649572000000006,-0.00011199900000000001
0.051575092,-0.00035279800000000003
0.050500608,0.0004927970000000001
0.049426128,-0.00017359900000000003
0.048351648000000004,-0.0004759970000000001
0.047277168,0.000531997
0.046202684,-0.000156799
0.045128204000000005,-0.000330398
0.044053724,0.000414398
0.04297924,-0.000167999
0.041904764000000004,5.5999756000000005e-05
0.040830280000000004,0.00012319900000000002
0.0397558,-0.000223999
0.038681316,0.000369598
0.037606836000000005,-0.00011759900000000001
0.036532356,-0.00036399800000000003
0.035457876,0.0004927970000000001
0.034383392,-0.000167999
0.033308912,-0.0004759970000000001
0.03223443,0.0005263970000000001
0.031159950000000002,-0.000156799
0.030085470000000003,-0.00031919800000000003
0.029010988,0.000408798
0.027936508000000002,-0.00016239900000000003
0.026862028000000003,6.7199712e-05
0.025787546,0.00011199900000000001
0.024713064,-0.00022959800000000002
0.023638584,0.000369598
0.022564102000000003,-0.00012319900000000002
0.02148962,-0.000369598
0.020415140000000002,0.0004927970000000001
0.019340658,-0.00017359900000000003
0.018266178,-0.0004759970000000001
0.017191696,0.0005263970000000001
0.016117215,-0.00016239900000000003
0.015042735000000002,-0.000313598
0.013968254000000001,0.00040319800000000007
0.012893773,-0.000167999
0.011819292,7.839966400000001e-05
0.01074481,0.00010639900000000001
0.009670329,-0.00022959800000000002
0.008595848,0.00038079800000000006
0.007521367,-0.00012319900000000002
0.006446886000000001,-0.000369598
0.005372405,0.000498397
0.004297924,-0.00017359900000000003
0.0032234430000000003,-0.0004759970000000001
0.002148962,0.0005263970000000001
0.001074481,-0.000156799
0.0,-0.00030239800000000005
-0.001074481,0.00039759800000000004
-0.002148962,-0.000167999
-0.0032234430000000003,8.959960800000002e-05
-0.004297924,0.00010079900000000001
-0.005372405,-0.00023519800000000002
-0.006446886000000001,0.00038079800000000006
-0.007521367,-0.00012319900000000002
-0.008595848,-0.00037519800000000004
-0.009670329,0.000503997
-0.01074481,-0.000167999
-0.011819292,-0.0004759970000000001
-0.012893773,0.0005263970000000001
-0.013968254000000001,-0.000156799
-0.015042735000000002,-0.000291198
-0.016117215,0.00038639800000000004
-0.017191696,-0.000167999
-0.018266178,9.5199592e-05
-0.019340658,9.5199592e-05
-0.020415140000000002,-0.00023519800000000002
-0.02148962,0.00038639800000000004
-0.022564102000000003,-0.000128799
-0.023638584,-0.00038079800000000006
-0.024713064,0.000503997
-0.025787546,-0.00017359900000000003
-0.026862028000000003,-0.0004759970000000001
-0.027936508000000002,0.000520797
-0.029010988,-0.00016239900000000003
-0.030085470000000003,-0.000285598
-0.031159950000000002,0.00038079800000000006
-0.03223443,-0.00017359900000000003
-0.033308912,0.00010639900000000001
-0.034383392,7.839966400000001e-05
-0.035457876,-0.00024079800000000002
-0.036532356,0.000391998
-0.037606836000000005,-0.00013439900000000003
-0.038681316,-0.00038639800000000004
-0.0397558,0.000503997
-0.040830280000000004,-0.00017359900000000003
-0.041904764000000004,-0.0004759970000000001
-0.04297924,0.0005263970000000001
-0.044053724,-0.000156799
-0.045128204000000005,-0.000274398
-0.046202684,0.00037519800000000004
-0.047277168,-0.000167999
-0.048351648000000004,0.00012319900000000002
-0.049426128,7.279968000000001e-05
-0.050500608,-0.00024079800000000002
-0.051575092,0.00040319800000000007
-0.052649572000000006,-0.00013439900000000003
-0.053724056000000006,-0.00038639800000000004
-0.054798532000000004,0.0005095970000000001
-0.055873016000000005,-0.000167999
-0.056947496,-0.000470397
-0.058021976,0.0005263970000000001
-0.05909646,-0.00015119900000000003
-0.060170940000000006,-0.000257598
-0.06124542,0.000369598
-0.062319900000000004,-0.00017359900000000003
-0.063394384,0.00013439900000000003
-0.06446886,6.159973199999999e-05
-0.065543348,-0.00024639800000000005
-0.066617824,0.00040319800000000007
-0.067692312,-0.000139999
-0.068766784,-0.00039759800000000004
-0.069841264,0.0005095970000000001
-0.070915752,-0.000167999
-0.071990232,-0.000470397
-0.073064712,0.000520797
-0.074139192,-0.000156799
-0.07521367200000001,-0.00024639800000000005
-0.07628816000000001,0.000358398
-0.077362632,-0.00017359900000000003
-0.07843712,0.00015119900000000003
-0.0795116,5.5999756000000005e-05
-0.08058607200000001,-0.00024639800000000005
-0.08166056000000001,0.000408798
-0.08273504000000001,-0.000145599
-0.08380952800000001,-0.00039759800000000004
-0.084884,0.0005095970000000001
-0.08595848,-0.000167999
-0.087032968,-0.000470397
-0.088107448,0.000520797
-0.08918192800000001,-0.00015119900000000003
-0.09025640800000001,-0.00022959800000000002
-0.09133089600000001,0.000358398
-0.092405368,-0.000167999
-0.093479848,0.00016239900000000003
-0.094554336,5.0399780000000004e-05
-0.095628816,-0.00024639800000000005
-0.09670329600000001,0.00042559800000000007
-0.09777777600000001,-0.000139999
-0.098852256,-0.000391998
-0.099926736,0.000531997
-0.101001,-0.000139999
-0.102075,-0.00043119800000000004
-0.10314999999999999,0.0005543970000000001
-0.104224,-0.00012319900000000002
-0.10529899999999999,-0.000195999
-0.106373,0.000358398
-0.107448,-0.00016239900000000003
-0.108522,0.000167999
-0.109597,3.3599856e-05
-0.11067099999999999,-0.00026879800000000005
-0.111746,0.000414398
-0.11281999999999999,-0.00016239900000000003
-0.113894,-0.00041999800000000004
-0.11496899999999999,0.0005095970000000001
-0.116043,-0.00017359900000000003
-0.117118,-0.0004759970000000001
-0.11819199999999999,0.000520797
-0.119267,-0.00016239900000000003
-0.12034099999999999,-0.000218399
-0.121416,0.000335998
-0.12248999999999999,-0.000179199
-0.123565,0.00017359900000000003
-0.124639,2.2399902000000004e-05
-0.125714,-0.00026879800000000005
-0.12678799999999998,0.00042559800000000007
-0.127863,-0.000156799
-0.128937,-0.00042559800000000007
-0.130012,0.000515197
-0.13108599999999998,-0.00017359900000000003
-0.132161,-0.0004759970000000001
-0.133235,0.000515197
-0.13430999999999998,-0.00016239900000000003
-0.135384,-0.000207199
-0.136459,0.000335998
-0.137533,-0.00017359900000000003
-0.13860799999999998,0.000195999
-0.139682,2.7999878000000003e-05
-0.140757,-0.000263198
-0.14183099999999998,0.00043119800000000004
-0.142905,-0.00016239900000000003
-0.14398,-0.00042559800000000007
-0.145054,0.000515197
-0.14612899999999998,-0.00017359900000000003
-0.147203,-0.000470397
-0.148278,0.000503997
-0.14935199999999998,-0.000167999
-0.150427,-0.000207199
-0.151501,0.00030799800000000003
-0.152576,-0.000184799
-0.15364999999999998,0.000184799
-0.154725,5.5999750000000005e-06
-0.155799,-0.000279998
-0.15687399999999999,0.00042559800000000007
-0.157948,-0.00017359900000000003
-0.159023,-0.00044239800000000004
-0.160097,0.000498397
-0.16117199999999998,-0.00019039900000000003
-0.162246,-0.00048719700000000003
-0.163321,0.00046479700000000003
-0.16439499999999999,-0.000195999
-0.16547,-0.000207199
-0.166544,0.00030799800000000003
-0.167619,-0.00017359900000000003
-0.16869299999999998,0.000207199
-0.169768,1.1199951000000002e-05
-0.170842,-0.000257598
-0.17191599999999999,0.000436798
-0.172991,-0.000145599
-0.174065,-0.000414398
-0.17514,0.000520797
-0.17621399999999998,-0.000156799
-0.177289,-0.00044239800000000004
-0.178363,0.0005095970000000001
-0.179438,-0.000145599
-0.18051199999999998,-0.00016239900000000003
-0.181587,0.000313598
-0.182661,-0.00016239900000000003
-0.18373599999999998,0.000218399
-0.18481,5.5999750000000005e-06
-0.185885,-0.000263198
-0.186959,0.00044239800000000004
-0.18803399999999998,-0.00015119900000000003
-0.189108,-0.000414398
-0.190183,0.000520797
-0.19125699999999998,-0.000156799
-0.192332,-0.00044239800000000004
-0.193406,0.000498397
-0.194481,-0.00015119900000000003
-0.19555499999999998,-0.000156799
-0.19663,0.000291198
-0.197704,-0.000184799
-0.19877799999999998,0.000218399
-0.199853,-5.5999750000000005e-06
