Potential (V),Current (µA)
-0.199853,-0.013999938000000002
-0.19877799999999998,-0.027999876000000003
-0.197704,-0.027999876000000003
-0.19663,-0.006999969000000001
-0.19555499999999998,-0.013999938000000002
-0.194481,-0.013999938000000002
-0.193406,0.0
-0.192332,-0.0034999840000000003
-0.19125699999999998,-0.0034999840000000003
-0.190183,-0.0017499920000000001
-0.189108,-0.0017499920000000001
-0.18803399999999998,-0.0017499920000000001
-0.186959,-0.0017499920000000001
-0.185885,-0.0043749800000000005
-0.18481,0.0008749960000000001
-0.18373599999999998,-0.0008749960000000001
-0.182661,-0.006999969000000001
-0.181587,0.003937482000000001
-0.18051199999999998,0.0
-0.179438,-0.003937482000000001
-0.178363,0.0026249880000000004
-0.177289,0.0008749960000000001
-0.17621399999999998,-0.00032812300000000004
-0.17514,-0.00021874900000000002
-0.174065,-0.0009183950000000001
-0.172991,0.000979995
-0.17191599999999999,-0.00034719800000000006
-0.170842,-0.0007783960000000001
-0.169768,0.000946395
-0.16869299999999998,-0.00032479800000000006
-0.167619,-0.00020159900000000003
-0.166544,0.0005263970000000001
-0.16547,-0.00038079800000000006
-0.16439499999999999,0.000520797
-0.163321,-3.9199832000000005e-05
-0.162246,-0.0005543970000000001
-0.16117199999999998,0.000923995
-0.160097,-0.00031919800000000003
-0.159023,-0.0007951960000000001
-0.157948,0.001024795
-0.15687399999999999,-0.000335998
-0.155799,-0.000739196
-0.154725,0.000923995
-0.15364999999999998,-0.000330398
-0.152576,-0.000139999
-0.151501,0.00048159700000000006
-0.150427,-0.000391998
-0.14935199999999998,0.0005711970000000001
-0.148278,-7.839966400000001e-05
-0.147203,-0.0005711970000000001
-0.14612899999999998,0.0009351950000000001
-0.145054,-0.000330398
-0.14398,-0.000811996
-0.142905,0.0010303950000000001
-0.14183099999999998,-0.000330398
-0.140757,-0.0007111960000000001
-0.139682,0.0009071960000000001
-0.13860799999999998,-0.00032479800000000006
-0.137533,-7.839966400000001e-05
-0.136459,0.000436798
-0.135384,-0.00040319800000000007
-0.13430999999999998,0.000610397
-0.133235,-0.00010639900000000001
-0.132161,-0.000587997
-0.13108599999999998,0.0009519950000000001
-0.130012,-0.000330398
-0.128937,-0.0008231960000000001
-0.127863,0.0010303950000000001
-0.12678799999999998,-0.000330398
-0.125714,-0.0006831970000000001
-0.124639,0.0008847960000000001
-0.123565,-0.000330398
-0.12248999999999999,-2.2399902000000004e-05
-0.121416,0.00038639800000000004
-0.12034099999999999,-0.000414398
-0.119267,0.0006495970000000001
-0.11819199999999999,-0.000139999
-0.117118,-0.000610397
-0.116043,0.000963195
-0.11496899999999999,-0.000335998
-0.113894,-0.000828796
-0.11281999999999999,0.0010303950000000001
-0.111746,-0.00032479800000000006
-0.11067099999999999,-0.0006495970000000001
-0.109597,0.0008567960000000001
-0.108522,-0.000335998
-0.107448,3.3599856e-05
-0.106373,0.00034719800000000006
-0.10529899999999999,-0.00042559800000000007
-0.104224,0.0006831970000000001
-0.10314999999999999,-0.000167999
-0.102075,-0.000627197
-0.101001,0.0009743950000000001
-0.099926736,-0.00034159800000000003
-0.098852256,-0.000834396
-0.09777777600000001,0.001024795
-0.09670329600000001,-0.00032479800000000006
-0.095628816,-0.0006159970000000001
-0.094554336,0.000828796
-0.093479848,-0.00034159800000000003
-0.092405368,9.5199592e-05
-0.09133089600000001,0.000296798
-0.09025640800000001,-0.00043119800000000004
-0.08918192800000001,0.000716796
-0.088107448,-0.00019039900000000003
-0.087032968,-0.0006495970000000001
-0.08595848,0.000979995
-0.084884,-0.00034159800000000003
-0.08380952800000001,-0.0008399960000000001
-0.08273504000000001,0.001024795
-0.08166056000000001,-0.00032479800000000006
-0.08058607200000001,-0.0005711970000000001
-0.0795116,0.000800796
-0.07843712,-0.000335998
-0.077362632,0.000145599
-0.07628816000000001,0.000257598
-0.07521367200000001,-0.00044239800000000004
-0.074139192,0.000744796
-0.073064712,-0.00021279900000000003
-0.071990232,-0.000671997
-0.070915752,0.0009855950000000001
-0.069841264,-0.00034159800000000003
-0.068766784,-0.0008399960000000001
-0.067692312,0.001019195
-0.066617824,-0.00032479800000000006
-0.065543348,-0.000531997
-0.06446886,0.0007727960000000001
-0.063394384,-0.00034719800000000006
-0.062319900000000004,0.000195999
-0.06124542,0.000218399
-0.060170940000000006,-0.00045919700000000006
-0.05909646,0.0007727960000000001
-0.058021976,-0.00023519800000000002
-0.056947496,-0.0006831970000000001
-0.055873016000000005,0.0009967950000000002
-0.054798532000000004,-0.00034159800000000003
-0.053724056000000006,-0.0008399960000000001
-0.052649572000000006,0.0010135950000000002
-0.051575092,-0.00032479800000000006
-0.050500608,-0.00048719700000000003
-0.049426128,0.000744796
-0.048351648000000004,-0.00035279800000000003
-0.047277168,0.000251998
-0.046202684,0.00017359900000000003
-0.045128204000000005,-0.000470397
-0.044053724,0.0007951960000000001
-0.04297924,-0.000251998
-0.041904764000000004,-0.0007055960000000001
-0.040830280000000004,0.0010023950000000001
-0.0397558,-0.00034159800000000003
-0.038681316,-0.000834396
-0.037606836000000005,0.001007995
-0.036532356,-0.00032479800000000006
-0.035457876,-0.00044239800000000004
-0.034383392,0.0007111960000000001
-0.033308912,-0.00035279800000000003
-0.03223443,0.000296798
-0.031159950000000002,0.00013439900000000003
-0.030085470000000003,-0.00048159700000000006
-0.029010988,0.0008231960000000001
-0.027936508000000002,-0.00026879800000000005
-0.026862028000000003,-0.000716796
-0.025787546,0.001007995
-0.024713064,-0.00034159800000000003
-0.023638584,-0.0008231960000000001
-0.022564102000000003,0.0009967950000000002
-0.02148962,-0.00032479800000000006
-0.020415140000000002,-0.00040319800000000007
-0.019340658,0.000677597
-0.018266178,-0.00036399800000000003
-0.017191696,0.00034719800000000006
-0.016117215,0.00010639900000000001
-0.015042735000000002,-0.000498397
-0.013968254000000001,0.000845596
-0.012893773,-0.000279998
-0.011819292,-0.0007279960000000001
-0.01074481,0.0010135950000000002
-0.009670329,-0.00034159800000000003
-0.008595848,-0.000817596
-0.007521367,0.0009855950000000001
-0.006446886000000001,-0.00032479800000000006
-0.005372405,-0.000358398
-0.004297924,0.0006495970000000001
-0.0032234430000000003,-0.00036399800000000003
-0.002148962,0.00038079800000000006
-0.001074481,6.7199712e-05
0.0,-0.0005095970000000001
0.001074481,0.0008623960000000001
0.002148962,-0.000291198
0.0032234430000000003,-0.0007503960000000001
0.004297924,0.001019195
0.005372405,-0.00034159800000000003
0.006446886000000001,-0.0008063960000000001
0.007521367,0.000979995
0.008595848,-0.00032479800000000006
0.009670329,-0.000313598
0.01074481,0.0006159970000000001
0.011819292,-0.000369598
0.012893773,0.00043119800000000004
0.013968254000000001,4.479980400000001e-05
0.015042735000000002,-0.000515197
0.016117215,0.0008903960000000001
0.017191696,-0.000291198
0.018266178,-0.000755996
0.019340658,0.0010471950000000001
0.020415140000000002,-0.00030239800000000005
0.02148962,-0.0007615960000000001
0.022564102000000003,0.0010303950000000001
0.023638584,-0.000279998
0.024713064,-0.000223999
0.025787546,0.0006495970000000001
0.026862028000000003,-0.00032479800000000006
0.027936508000000002,0.0005487970000000001
0.029010988,9.5199592e-05
0.030085470000000003,-0.00045359800000000004
0.031159950000000002,0.0010135950000000002
0.03223443,-0.000223999
0.033308912,-0.000716796
0.034383392,0.0011199950000000001
0.035457876,-0.000296798
0.036532356,-0.0007615960000000001
0.037606836000000005,0.001024795
0.038681316,-0.000296798
0.0397558,-0.000195999
0.040830280000000004,0.000599197
0.041904764000000004,-0.00038079800000000006
0.04297924,0.000543197
0.044053724,1.6799928e-05
0.045128204000000005,-0.000515197
0.046202684,0.0009855950000000001
0.047277168,-0.000330398
0.048351648000000004,-0.0008399960000000001
0.049426128,0.001052795
0.050500608,-0.00038639800000000004
0.051575092,-0.000834396
0.052649572000000006,0.0009575950000000001
0.053724056000000006,-0.000369598
0.054798532000000004,-0.00021279900000000003
0.055873016000000005,0.0004927970000000001
0.056947496,-0.00034159800000000003
0.058021976,0.0007111960000000001
0.05909646,6.159973199999999e-05
0.060170940000000006,-0.0005095970000000001
0.06124542,0.001024795
0.062319900000000004,-0.000313598
0.063394384,-0.000845596
0.06446886,0.0010023950000000001
0.065543348,-0.00041999800000000004
0.066617824,-0.0008231960000000001
0.067692312,0.0009015960000000001
0.068766784,-0.00038639800000000004
0.069841264,-0.000195999
0.070915752,0.00046479700000000003
0.071990232,-0.00044239800000000004
0.073064712,0.000537597
0.074139192,-8.3999632e-05
0.07521367200000001,-0.0006159970000000001
0.07628816000000001,0.0009351950000000001
0.077362632,-0.00034159800000000003
0.07843712,-0.000845596
0.0795116,0.001035995
0.08058607200000001,-0.00034719800000000006
0.08166056000000001,-0.0007503960000000001
0.08273504000000001,0.0009295950000000001
0.08380952800000001,-0.00034159800000000003
0.084884,-0.000139999
0.08595848,0.000537597
0.087032968,-0.000470397
0.088107448,0.0006663970000000001
0.08918192800000001,-5.0399780000000004e-05
0.09025640800000001,-0.0006495970000000001
0.09133089600000001,0.0011255950000000003
0.092405368,-0.00026879800000000005
0.093479848,-0.000834396
0.094554336,0.0013159940000000002
0.095628816,-0.00013439900000000003
0.09670329600000001,-0.0006047970000000001
0.09777777600000001,0.001097595
0.098852256,-0.000330398
0.099926736,-3.9199832000000005e-05
0.101001,0.0004759970000000001
0.102075,-0.00048719700000000003
0.10314999999999999,0.0006831970000000001
0.104224,-0.00011759900000000001
0.10529899999999999,-0.000688796
0.106373,0.001035995
0.107448,-0.00038639800000000004
0.108522,-0.0009519950000000001
0.109597,0.0010863950000000002
0.11067099999999999,-0.000414398
0.111746,-0.0007727960000000001
0.11281999999999999,0.0009071960000000001
0.113894,-0.000414398
0.11496899999999999,-3.3599856e-05
0.116043,0.000369598
0.117118,-0.000503997
0.11819199999999999,0.000677597
0.119267,-0.00019039900000000003
0.12034099999999999,-0.0007111960000000001
0.121416,0.000991195
0.12248999999999999,-0.00040319800000000007
0.123565,-0.0009519950000000001
0.124639,0.0010135950000000002
0.125714,-0.000313598
0.12678799999999998,-0.0006383970000000001
0.127863,0.0009183950000000001
0.128937,-0.00035279800000000003
0.130012,5.5999756000000005e-05
0.13108599999999998,0.00035279800000000003
0.132161,-0.00048159700000000006
0.133235,0.0006943960000000001
0.13430999999999998,-0.00020159900000000003
0.135384,-0.0007111960000000001
0.136459,0.000979995
0.137533,-0.00038639800000000004
0.13860799999999998,-0.000912796
0.139682,0.0010471950000000001
0.140757,-0.000369598
0.14183099999999998,-0.000655197
0.142905,0.0008399960000000001
0.14398,-0.00038639800000000004
0.145054,8.3999632e-05
0.14612899999999998,0.000291198
0.147203,-0.00048719700000000003
0.148278,0.0007335960000000001
0.14935199999999998,-0.000207199
0.150427,-0.0007111960000000001
0.151501,0.001019195
0.152576,-0.00036399800000000003
0.15364999999999998,-0.000912796
0.154725,0.001080795
0.155799,-0.000369598
0.15687399999999999,-0.000643997
0.157948,0.0009071960000000001
0.159023,-0.00045359800000000004
0.160097,0.00020159900000000003
0.16117199999999998,0.000279998
0.162246,-0.0005711970000000001
0.163321,0.0008791960000000001
0.16439499999999999,-0.00024639800000000005
0.16547,-0.000789596
0.166544,0.0011535940000000002
0.167619,-0.00040319800000000007
0.16869299999999998,-0.0009519950000000001
0.169768,0.0011703940000000002
0.170842,-0.00040319800000000007
0.17191599999999999,-0.000565597
0.172991,0.000873596
0.174065,-0.00044239800000000004
0.17514,0.000263198
0.17621399999999998,0.00024079800000000002
0.177289,-0.000559997
0.178363,0.0009071960000000001
0.179438,-0.000263198
0.18051199999999998,-0.0007783960000000001
0.181587,0.0011591940000000001
0.182661,-0.000391998
0.18373599999999998,-0.000923995
0.18481,0.001164794
0.185885,-0.000391998
0.186959,-0.0005095970000000001
0.18803399999999998,0.0008399960000000001
0.189108,-0.00042559800000000007
0.190183,0.00031919800000000003
0.19125699999999998,0.00019039900000000003
0.192332,-0.0005543970000000001
0.193406,0.0009295950000000001
0.194481,-0.00030239800000000005
0.19555499999999998,-0.000800796
0.19663,0.0011367950000000001
0.197704,-0.00041999800000000004
0.19877799999999998,-0.0009295950000000001
0.199853,0.0011031950000000002
0.200927,-0.00043119800000000004
0.202002,-0.0004927970000000001
0.20307599999999998,0.0007279960000000001
0.204151,-0.00048719700000000003
0.205225,0.00031919800000000003
0.20629999999999998,6.159973199999999e-05
0.207374,-0.000627197
0.208449,0.0008847960000000001
0.209523,-0.00040319800000000007
0.21059799999999998,-0.000873596
0.211672,0.001063995
0.212747,-0.000515197
0.21382099999999998,-0.0009519950000000001
0.214896,0.001007995
0.21597,-0.0004759970000000001
0.217045,-0.00043119800000000004
0.21811899999999998,0.000643997
0.219194,-0.00048159700000000006
0.220268,0.000408798
0.22134299999999998,2.2399902000000004e-05
0.222417,-0.0005767970000000001
0.223492,0.0009575950000000001
0.224566,-0.00036399800000000003
0.22564099999999998,-0.0007951960000000001
0.226715,0.0011031950000000002
0.227789,-0.00041999800000000004
0.22886399999999998,-0.0008511960000000001
0.22993799999999998,0.001019195
0.231013,-0.00040319800000000007
0.232087,-0.00032479800000000006
0.23316199999999998,0.0006383970000000001
0.234236,-0.00041999800000000004
0.235311,0.0004927970000000001
0.23638499999999998,5.5999750000000005e-06
0.23745999999999998,-0.000543197
0.238534,0.0009743950000000001
0.239609,-0.000369598
0.24068299999999998,-0.000789596
0.241758,0.0010919950000000001
0.242832,-0.000408798
0.24390699999999998,-0.0008231960000000001
0.24498099999999998,0.0010135950000000002
0.246056,-0.00038639800000000004
0.24713,-0.000274398
0.24820499999999998,0.0005711970000000001
0.249279,-0.0004759970000000001
0.25035399999999997,0.000414398
0.251428,-0.000139999
0.252503,-0.0006943960000000001
0.253577,0.000845596
0.254652,-0.0004927970000000001
0.255726,-0.0009295950000000001
0.2568,0.0009575950000000001
0.25787499999999997,-0.00048719700000000003
0.258949,-0.000811996
0.260024,0.0010471950000000001
0.261098,-0.000263198
0.262173,-7.839966400000001e-05
0.263247,0.0007279960000000001
0.264322,-0.00023519800000000002
0.26539599999999997,0.0007503960000000001
0.266471,0.00010639900000000001
0.267545,-0.00041999800000000004
0.26861999999999997,0.0011423950000000003
0.269694,-0.000313598
0.270769,-0.0008231960000000001
0.271843,0.0010303950000000001
0.272918,-0.00044239800000000004
0.273992,-0.0007951960000000001
0.275067,0.000968795
0.27614099999999997,-0.00036399800000000003
0.27721599999999996,-0.000156799
0.27829,0.000531997
0.279365,-0.000414398
0.280439,0.0006047970000000001
0.281514,-7.839966400000001e-05
0.282588,-0.000582397
0.283663,0.0010023950000000001
0.28473699999999996,-0.000391998
0.285811,-0.000828796
0.286886,0.001080795
0.28796,-0.00039759800000000004
0.289035,-0.0007503960000000001
0.290109,0.000946395
0.291184,-0.00040319800000000007
0.29225799999999996,-0.00015119900000000003
0.293333,0.00043119800000000004
0.294407,-0.000470397
0.29548199999999997,0.0006047970000000001
0.296556,-0.00013439900000000003
0.297631,-0.000610397
0.298705,0.0010303950000000001
0.29978,-0.000369598
0.300854,-0.0008063960000000001
0.301929,0.0011199950000000001
0.30300299999999997,-0.00036399800000000003
0.30407799999999996,-0.0007055960000000001
0.305152,0.000946395
0.30622699999999997,-0.00039759800000000004
0.307301,-7.839966400000001e-05
0.308376,0.000414398
0.30945,-0.00045359800000000004
0.310525,0.000671997
0.31159899999999996,-0.00016239900000000003
0.312673,-0.000632797
0.31374799999999997,0.001024795
0.314822,-0.000408798
0.315897,-0.0008567960000000001
0.316971,0.001080795
0.318046,-0.00040319800000000007
0.31911999999999996,-0.0007055960000000001
0.320195,0.000912796
0.32126899999999997,-0.000391998
0.32234399999999996,0.0
0.323418,0.00039759800000000004
0.324493,-0.000447998
0.325567,0.000722396
0.326642,-0.00017359900000000003
0.327716,-0.000632797
0.328791,0.001052795
0.32986499999999996,-0.00039759800000000004
0.33094,-0.0008567960000000001
0.332014,0.0010863950000000002
0.33308899999999997,-0.00039759800000000004
0.334163,-0.000677597
0.335238,0.0008847960000000001
0.336312,-0.00039759800000000004
0.337387,4.479980400000001e-05
0.338461,0.000335998
0.339536,-0.0004927970000000001
0.34060999999999997,0.000744796
0.341684,-0.000195999
0.342759,-0.0006383970000000001
0.343833,0.001058395
0.344908,-0.000391998
0.345982,-0.0008567960000000001
0.347057,0.001080795
0.34813099999999997,-0.00039759800000000004
0.34920599999999996,-0.0006383970000000001
0.35028,0.0008511960000000001
0.351355,-0.00040319800000000007
0.352429,0.00010079900000000001
0.353504,0.000313598
0.354578,-0.00046479700000000003
0.355653,0.000800796
0.35672699999999996,-0.000167999
0.357802,-0.0006215970000000001
0.358876,0.0010863950000000002
0.35995099999999997,-0.00038639800000000004
0.361025,-0.0008567960000000001
0.3621,0.0010863950000000002
0.363174,-0.000391998
0.364249,-0.000587997
0.365323,0.0008679960000000001
0.366398,-0.00037519800000000004
0.36747199999999997,0.000179199
0.368546,0.000291198
0.369621,-0.000498397
0.370695,0.0007951960000000001
0.37177,-0.000251998
0.372844,-0.000677597
0.373919,0.001080795
0.37499299999999997,-0.00039759800000000004
0.37606799999999996,-0.0008567960000000001
0.377142,0.001080795
0.37821699999999997,-0.00037519800000000004
0.379291,-0.000537597
0.380366,0.0008511960000000001
0.38144,-0.000335998
0.382515,0.000274398
0.38358899999999996,0.00030239800000000005
0.384664,-0.00038639800000000004
0.38573799999999997,0.000923995
0.38681299999999996,-0.00023519800000000002
0.387887,-0.0006831970000000001
0.388962,0.001075195
0.390036,-0.00042559800000000007
0.391111,-0.0008903960000000001
0.392185,0.001035995
0.39326,-0.00041999800000000004
0.39433399999999996,-0.000543197
0.39540899999999995,0.000744796
0.396483,-0.000436798
0.397557,0.00021279900000000003
0.398632,0.00012319900000000002
0.399706,-0.0005935970000000001
0.400781,0.0007503960000000001
0.40185499999999996,-0.000414398
0.40292999999999995,-0.0008567960000000001
0.404004,0.0009295950000000001
0.40507899999999997,-0.0005711970000000001
0.406153,-0.001041595
0.407228,0.0008791960000000001
0.408302,-0.0005767970000000001
0.409377,-0.000671997
0.41045099999999995,0.000543197
0.411526,-0.000610397
0.41259999999999997,0.00011199900000000001
0.41367499999999996,-6.7199712e-05
0.414749,-0.0007279960000000001
0.41582399999999997,0.0007055960000000001
0.416898,-0.00048159700000000006
0.417973,-0.000873596
0.419047,0.000963195
0.420122,-0.000515197
0.42119599999999996,-0.000963195
0.422271,0.000946395
0.42334499999999997,-0.000503997
0.42441999999999996,-0.000565597
0.425494,0.000582397
0.426568,-0.000520797
0.427643,0.00026879800000000005
0.42871699999999996,0.0
0.429792,-0.000627197
0.43086599999999997,0.000817596
0.43194099999999996,-0.00043119800000000004
0.433015,-0.000845596
0.43409,0.001019195
0.435164,-0.000470397
0.436239,-0.000895996
0.437313,0.001007995
0.438388,-0.000414398
0.43946199999999996,-0.00039759800000000004
0.44053699999999996,0.0006663970000000001
0.441611,-0.00042559800000000007
0.44268599999999997,0.000414398
0.44376,5.0399780000000004e-05
0.444835,-0.0005487970000000001
0.445909,0.0009351950000000001
0.446984,-0.00035279800000000003
0.44805799999999996,-0.0007727960000000001
0.449133,0.0010919950000000001
0.45020699999999997,-0.00040319800000000007
0.45128199999999996,-0.0008231960000000001
0.452356,0.001035995
0.45343,-0.00038079800000000006
0.454505,-0.000330398
0.45557899999999996,0.000643997
0.456654,-0.00042559800000000007
0.45772799999999997,0.00045919700000000006
0.45880299999999996,2.2399902000000004e-05
0.459877,-0.0005487970000000001
0.460952,0.000963195
0.462026,-0.00034719800000000006
0.463101,-0.0007727960000000001
0.464175,0.0011031950000000002
0.46525,-0.00040319800000000007
0.46632399999999996,-0.000811996
0.46739899999999995,0.0010303950000000001
0.468473,-0.00037519800000000004
0.46954799999999997,-0.000279998
0.470622,0.0006159970000000001
0.471697,-0.00041999800000000004
0.472771,0.000503997
0.473846,0.0
0.47491999999999995,-0.0005543970000000001
0.475995,0.000991195
0.47706899999999997,-0.00035279800000000003
0.47814399999999996,-0.000783996
0.479218,0.001114395
0.48029299999999997,-0.00038079800000000006
0.481367,-0.000783996
0.48244099999999995,0.001024795
0.483516,-0.00037519800000000004
0.48458999999999997,-0.000223999
0.48566499999999996,0.0005767970000000001
0.486739,-0.00042559800000000007
0.48781399999999997,0.0005543970000000001
0.488888,-4.479980400000001e-05
0.489963,-0.000587997
0.491037,0.000979995
0.492112,-0.00039759800000000004
0.49318599999999996,-0.000845596
0.49426099999999995,0.001063995
0.49533499999999997,-0.00043119800000000004
0.49640999999999996,-0.0008063960000000001
0.497484,0.0009743950000000001
0.498559,-0.00039759800000000004
0.499633,-0.000207199
0.5007079999999999,0.0005095970000000001
0.501782,-0.000447998
0.502857,0.0005767970000000001
0.503931,-7.279968000000001e-05
0.505006,-0.000587997
0.50608,0.001019195
0.507155,-0.00037519800000000004
0.5082289999999999,-0.0008063960000000001
0.509304,0.001114395
0.510378,-0.00037519800000000004
0.511452,-0.0007335960000000001
0.512527,0.0009967950000000002
0.513601,-0.00036399800000000003
0.514676,-9.5199592e-05
0.5157499999999999,0.000537597
0.516825,-0.000408798
0.517899,0.000655197
0.5189739999999999,-8.959960800000002e-05
0.520048,-0.000599197
0.521123,0.0010023950000000001
0.522197,-0.00040319800000000007
0.523272,-0.000834396
0.524346,0.001097595
0.525421,-0.000391998
0.5264949999999999,-0.0007335960000000001
0.52757,0.000963195
0.528644,-0.00038079800000000006
0.5297189999999999,-7.839966400000001e-05
0.530793,0.00046479700000000003
0.531868,-0.00044239800000000004
0.532942,0.000660797
0.534017,-0.000139999
0.535091,-0.0006159970000000001
0.5361659999999999,0.001024795
0.5372399999999999,-0.00040319800000000007
0.538314,-0.0008511960000000001
0.539389,0.0010919950000000001
0.540463,-0.000391998
0.541538,-0.0007111960000000001
0.542612,0.000946395
0.5436869999999999,-0.00038079800000000006
0.5447609999999999,-4.479980400000001e-05
0.545836,0.000414398
0.54691,-0.00046479700000000003
0.5479849999999999,0.000688796
0.549059,-0.00015119900000000003
0.550134,-0.0006159970000000001
0.5512079999999999,0.001052795
0.552283,-0.00038639800000000004
0.553357,-0.0008231960000000001
0.5544319999999999,0.001108795
0.5555059999999999,-0.00037519800000000004
0.556581,-0.0006663970000000001
0.557655,0.0009351950000000001
0.55873,-0.00038079800000000006
0.559804,1.1199951000000002e-05
0.560879,0.000391998
0.5619529999999999,-0.000436798
0.563028,0.0007335960000000001
0.564102,-0.000179199
0.5651769999999999,-0.0006383970000000001
0.566251,0.001058395
0.567326,-0.00039759800000000004
0.5684,-0.0008511960000000001
0.5694739999999999,0.0010919950000000001
0.570549,-0.00038639800000000004
0.571623,-0.000655197
0.5726979999999999,0.000895996
0.573772,-0.00038639800000000004
0.574847,5.5999756000000005e-05
0.575921,0.000335998
0.576996,-0.0004759970000000001
0.57807,0.000744796
0.579145,-0.000218399
0.5802189999999999,-0.0006663970000000001
0.581294,0.001041595
0.582368,-0.00041999800000000004
0.5834429999999999,-0.0008679960000000001
0.584517,0.001080795
0.585592,-0.000391998
0.586666,-0.0006215970000000001
0.587741,0.0008791960000000001
0.588815,-0.00038639800000000004
0.58989,0.00011199900000000001
0.5909639999999999,0.00031919800000000003
0.592039,-0.000470397
0.593113,0.000783996
0.5941879999999999,-0.00024079800000000002
0.595262,-0.0006831970000000001
0.596336,0.0010471950000000001
0.597411,-0.00043119800000000004
0.5984849999999999,-0.000895996
0.59956,0.001058395
0.600634,-0.00040319800000000007
0.6017089999999999,-0.0006047970000000001
0.602783,0.000845596
0.603858,-0.000391998
0.604932,0.000156799
0.606007,0.000279998
0.607081,-0.000470397
0.6081559999999999,0.000817596
0.6092299999999999,-0.00024079800000000002
0.610305,-0.000677597
0.611379,0.0010695950000000002
0.6124539999999999,-0.000408798
0.613528,-0.0008623960000000001
0.614603,0.001080795
0.6156769999999999,-0.000391998
0.616752,-0.0005711970000000001
0.617826,0.000817596
0.6189009999999999,-0.00039759800000000004
0.6199749999999999,0.000195999
0.62105,0.00023519800000000002
0.622124,-0.0004927970000000001
0.6231979999999999,0.000834396
0.624273,-0.000251998
0.625347,-0.000677597
0.6264219999999999,0.0011031950000000002
0.6274959999999999,-0.00038079800000000006
0.628571,-0.000834396
0.629645,0.001108795
0.63072,-0.00035279800000000003
0.631794,-0.0005095970000000001
0.632869,0.000834396
0.6339429999999999,-0.000369598
0.635018,0.000251998
0.636092,0.00024079800000000002
0.6371669999999999,-0.000470397
0.638241,0.0008623960000000001
0.639316,-0.00026879800000000005
0.64039,-0.0006943960000000001
0.641465,0.0010919950000000001
0.642539,-0.00038079800000000006
0.643614,-0.000828796
0.6446879999999999,0.001097595
0.645763,-0.00037519800000000004
0.646837,-0.000503997
0.6479119999999999,0.000783996
0.648986,-0.00040319800000000007
0.650061,0.000263198
0.651135,0.000179199
0.6522089999999999,-0.000503997
0.653284,0.0008679960000000001
0.654358,-0.00034719800000000006
0.6554329999999999,-0.000789596
0.656507,0.001024795
0.657582,-0.00046479700000000003
0.658656,-0.000923995
0.659731,0.001024795
0.660805,-0.000391998
0.66188,-0.00046479700000000003
0.6629539999999999,0.000767196
0.664029,-0.000391998
0.665103,0.00031919800000000003
0.6661779999999999,0.000156799
0.667252,-0.0005095970000000001
0.668327,0.0008903960000000001
0.669401,-0.00030799800000000003
0.670476,-0.0007279960000000001
0.67155,0.0010863950000000002
0.6726249999999999,-0.00039759800000000004
0.6736989999999999,-0.0008399960000000001
0.674774,0.001075195
0.675848,-0.000369598
0.6769229999999999,-0.00041999800000000004
0.677997,0.000739196
0.679072,-0.00039759800000000004
0.6801459999999999,0.000358398
0.6812199999999999,9.5199592e-05
0.682295,-0.000520797
0.683369,0.0009407950000000001
0.6844439999999999,-0.000285598
0.685518,-0.0007111960000000001
0.686593,0.0011255950000000003
0.6876669999999999,-0.00036399800000000003
0.688742,-0.000800796
0.689816,0.0011031950000000002
0.6908909999999999,-0.000335998
0.6919649999999999,-0.000369598
0.69304,0.0007335960000000001
0.694114,-0.000391998
0.695189,0.000391998
0.696263,8.3999632e-05
0.697338,-0.000537597
0.6984119999999999,0.0009183950000000001
0.699487,-0.000335998
0.700561,-0.0007615960000000001
0.7016359999999999,0.0010919950000000001
0.70271,-0.00039759800000000004
0.703785,-0.000828796
0.704859,0.001052795
0.705934,-0.00037519800000000004
0.707008,-0.000358398
0.708083,0.0006831970000000001
0.7091569999999999,-0.000436798
0.710231,0.000391998
0.711306,2.2399902000000004e-05
0.71238,-0.000565597
0.713455,0.0009183950000000001
0.714529,-0.00036399800000000003
0.715604,-0.0007783960000000001
0.7166779999999999,0.0010863950000000002
0.717753,-0.00040319800000000007
0.718827,-0.0008231960000000001
0.7199019999999999,0.001035995
0.720976,-0.00038079800000000006
0.722051,-0.00034159800000000003
0.723125,0.000632797
0.7242,-0.00042559800000000007
0.725274,0.00045359800000000004
0.726349,2.2399902000000004e-05
0.7274229999999999,-0.0005543970000000001
0.728498,0.0009519950000000001
0.729572,-0.000358398
0.7306469999999999,-0.000767196
0.731721,0.001131195
0.732796,-0.00034719800000000006
0.7338699999999999,-0.000716796
0.734945,0.001108795
0.736019,-0.00032479800000000006
0.737093,-0.00024639800000000005
0.7381679999999999,0.0006663970000000001
0.739242,-0.00039759800000000004
0.740317,0.000503997
0.7413909999999999,5.5999750000000005e-06
0.742466,-0.000559997
0.74354,0.000968795
0.7446149999999999,-0.000369598
0.7456889999999999,-0.0007951960000000001
0.746764,0.0010919950000000001
0.747838,-0.00039759800000000004
0.7489129999999999,-0.000800796
0.749987,0.001019195
0.751062,-0.00038079800000000006
0.7521359999999999,-0.00024639800000000005
0.753211,0.000599197
0.754285,-0.00041999800000000004
0.7553599999999999,0.000531997
0.7564339999999999,-1.6799928e-05
0.757509,-0.000565597
0.758583,0.0009967950000000002
0.7596579999999999,-0.00034719800000000006
0.760732,-0.0007503960000000001
0.761807,0.001147995
0.7628809999999999,-0.00034159800000000003
0.7639549999999999,-0.0007335960000000001
0.76503,0.001058395
0.766104,-0.00032479800000000006
0.7671789999999999,-0.000156799
0.768253,0.0006215970000000001
0.769328,-0.00036399800000000003
0.7704019999999999,0.0006495970000000001
0.771477,5.0399780000000004e-05
0.772551,-0.0004759970000000001
0.7736259999999999,0.001097595
0.7746999999999999,-0.000274398
0.775775,-0.000722396
0.776849,0.001181594
0.777924,-0.00032479800000000006
0.778998,-0.0007279960000000001
0.780073,0.001024795
0.7811469999999999,-0.00034719800000000006
0.782222,-0.00013439900000000003
0.783296,0.0005935970000000001
0.7843709999999999,-0.00037519800000000004
0.785445,0.000632797
0.78652,-4.479980400000001e-05
0.787594,-0.0005711970000000001
0.788669,0.0010135950000000002
0.789743,-0.00038079800000000006
0.7908179999999999,-0.0008063960000000001
0.7918919999999999,0.0010919950000000001
0.792967,-0.00040319800000000007
0.794041,-0.000755996
0.795115,0.000963195
0.79619,-0.000391998
0.797264,-0.00016239900000000003
0.7983389999999999,0.00048159700000000006
0.7994129999999999,-0.00045919700000000006
0.800488,0.000559997
0.801562,-0.000156799
0.8026369999999999,-0.000655197
0.803711,0.000946395
0.804786,-0.00045359800000000004
0.8058599999999999,-0.0008903960000000001
0.806935,0.001019195
0.808009,-0.0004759970000000001
0.8090839999999999,-0.0007951960000000001
0.8101579999999999,0.000912796
0.811233,-0.00042559800000000007
0.812307,-0.00013439900000000003
0.8133819999999999,0.00043119800000000004
0.814456,-0.0004759970000000001
0.815531,0.0006047970000000001
0.8166049999999999,-0.000167999
0.81768,-0.000655197
0.818754,0.0009743950000000001
0.8198289999999999,-0.00041999800000000004
0.8209029999999999,-0.000845596
0.821978,0.0010863950000000002
0.823052,-0.000391998
0.8241259999999999,-0.000722396
0.825201,0.0009295950000000001
0.826275,-0.00040319800000000007
0.8273499999999999,-7.839966400000001e-05
0.8284239999999999,0.000414398
0.829499,-0.00045919700000000006
0.830573,0.000660797
0.8316479999999999,-0.00015119900000000003
0.832722,-0.0006215970000000001
0.833797,0.0010303950000000001
0.8348709999999999,-0.00039759800000000004
0.835946,-0.000845596
0.83702,0.0010863950000000002
0.8380949999999999,-0.00040319800000000007
0.8391689999999999,-0.0007055960000000001
0.840244,0.000923995
0.841318,-0.00038639800000000004
0.842393,-1.6799928e-05
0.843467,0.000391998
0.844542,-0.00048719700000000003
0.8456159999999999,0.0006383970000000001
0.846691,-0.000251998
0.847765,-0.0007335960000000001
0.8488399999999999,0.000923995
0.849914,-0.0005263970000000001
0.850988,-0.0009855950000000001
0.852063,0.0009519950000000001
0.8531369999999999,-0.000537597
0.854212,-0.0008399960000000001
0.855286,0.000739196
0.8563609999999999,-0.000537597
0.857435,-0.00010639900000000001
0.85851,0.000274398
0.859584,-0.000559997
0.860659,0.0006159970000000001
0.861733,-0.000313598
0.8628079999999999,-0.000789596
0.8638819999999999,0.0008847960000000001
0.864957,-0.0005487970000000001
0.866031,-0.000968795
0.8671059999999999,0.000991195
0.86818,-0.000447998
0.869255,-0.0007055960000000001
0.8703289999999999,0.000817596
0.871404,-0.0004759970000000001
0.872478,-3.3599856e-05
0.8735529999999999,0.00024639800000000005
0.8746269999999999,-0.0005487970000000001
0.875702,0.000655197
0.876776,-0.00030799800000000003
0.8778499999999999,-0.000767196
0.878925,0.0009183950000000001
0.879999,-0.000559997
0.8810739999999999,-0.001024795
0.8821479999999999,0.0009183950000000001
0.883223,-0.000543197
0.884297,-0.0007615960000000001
0.8853719999999999,0.000789596
0.886446,-0.000447998
0.887521,8.3999632e-05
0.8885949999999999,0.000291198
0.88967,-0.00048159700000000006
0.890744,0.0007615960000000001
0.8918189999999999,-0.000257598
0.8928929999999999,-0.0007055960000000001
0.893968,0.001007995
0.895042,-0.0004759970000000001
0.8961169999999999,-0.0011591940000000001
0.897191,0.0007055960000000001
0.898266,-0.000671997
0.8993399999999999,-0.000408798
0.900415,0.001024795
0.901489,-0.000358398
0.9025639999999999,0.000139999
0.9036379999999999,0.000184799
0.904713,-0.000582397
0.905787,0.000767196
0.9068609999999999,-0.00020159900000000003
0.907936,-0.000537597
0.90901,0.001271194
0.9100849999999999,-0.00034159800000000003
0.9111589999999999,-0.000946395
0.912234,0.0009407950000000001
0.913308,-0.00045359800000000004
0.914383,-0.0004927970000000001
0.915457,0.000968795
0.916532,-0.00020159900000000003
0.9176059999999999,0.00041999800000000004
0.918681,0.000414398
0.919755,-0.000330398
0.9208299999999999,0.0009967950000000002
0.921904,-7.839966400000001e-05
0.922979,-0.00044239800000000004
0.924053,0.0013663940000000002
0.925128,-5.5999756000000005e-05
0.926202,-0.000520797
0.9272769999999999,0.0013383940000000001
0.9283509999999999,-0.00015119900000000003
0.929426,-0.00022959800000000002
0.9305,0.0011423950000000003
0.9315749999999999,-2.7999878000000003e-05
0.932649,0.0006663970000000001
0.933724,0.000565597
0.9347979999999999,-0.00011199900000000001
0.9358719999999999,0.0013495940000000002
0.936947,0.00010639900000000001
0.938021,-0.000369598
0.9390959999999999,0.001394393
0.94017,-0.00017359900000000003
0.941245,-0.0007111960000000001
0.9423189999999999,0.001181594
0.943394,-0.000330398
0.944468,-0.00048159700000000006
0.9455429999999999,0.0007727960000000001
0.9466169999999999,-0.00041999800000000004
0.947692,0.000274398
0.948766,0.000156799
0.9498409999999999,-0.000515197
0.950915,0.000895996
0.95199,-0.000285598
0.9530639999999999,-0.0007055960000000001
0.954139,0.0011255950000000003
0.955213,-0.00036399800000000003
0.9562879999999999,-0.0008231960000000001
0.9573619999999999,0.0011199950000000001
0.958437,-0.000330398
0.959511,-0.000414398
0.9605859999999999,0.0007783960000000001
0.96166,-0.00038079800000000006
0.962735,0.00035279800000000003
0.9638089999999999,0.000139999
0.9648829999999999,-0.000515197
0.965958,0.000912796
0.967032,-0.00031919800000000003
0.9681069999999999,-0.000744796
0.969181,0.001097595
0.970256,-0.000408798
0.9713299999999999,-0.000873596
0.972405,0.001052795
0.973479,-0.00040319800000000007
0.9745539999999999,-0.00044239800000000004
0.9756279999999999,0.000699996
0.976703,-0.000436798
0.977777,0.00034719800000000006
0.9788519999999999,6.7199712e-05
0.979926,-0.000559997
0.9810009999999999,0.000895996
0.9820749999999999,-0.00034719800000000006
0.98315,-0.0007727960000000001
0.984224,0.0010863950000000002
0.9852989999999999,-0.000414398
0.9863729999999999,-0.0008567960000000001
0.987448,0.001058395
0.9885219999999999,-0.00038079800000000006
0.989597,-0.00038079800000000006
0.990671,0.000699996
0.991745,-0.00039759800000000004
0.9928199999999999,0.00042559800000000007
0.9938939999999999,7.839966400000001e-05
0.994969,-0.000531997
0.9960429999999999,0.0009519950000000001
0.997118,-0.00034159800000000003
0.998192,-0.0007727960000000001
0.9992669999999999,0.001097595
1.000341,-0.00040319800000000007
1.0014159999999999,-0.0008399960000000001
1.0024899999999999,0.0010471950000000001
1.003565,-0.00037519800000000004
1.004639,-0.000335998
1.005714,0.0006663970000000001
1.006788,-0.000414398
1.007863,0.00045359800000000004
1.008937,3.9199832000000005e-05
1.010012,-0.000543197
1.011086,0.000963195
1.0121609999999999,-0.00034719800000000006
1.0132349999999999,-0.0007783960000000001
1.01431,0.001108795
1.015384,-0.00038639800000000004
1.016459,-0.000811996
1.017533,0.0010471950000000001
1.018608,-0.000369598
1.019682,-0.000291198
1.020756,0.0006495970000000001
1.021831,-0.00040319800000000007
1.022905,0.000515197
1.02398,1.6799928e-05
1.025054,-0.000531997
1.0261289999999998,0.0010023950000000001
1.0272029999999999,-0.00034159800000000003
1.028278,-0.0007727960000000001
1.029352,0.001131195
1.030427,-0.00037519800000000004
1.031501,-0.0007951960000000001
1.032576,0.001041595
1.03365,-0.00037519800000000004
1.034725,-0.00024639800000000005
1.035799,0.0006159970000000001
1.0368739999999999,-0.00039759800000000004
1.0379479999999999,0.0005711970000000001
1.039023,-5.5999750000000005e-06
1.040097,-0.000543197
1.041172,0.001035995
1.042246,-0.00035279800000000003
1.043321,-0.0007951960000000001
1.044395,0.0011591940000000001
1.04547,-0.00035279800000000003
1.046544,-0.0007727960000000001
1.047618,0.001041595
1.0486929999999999,-0.000330398
1.049767,-0.00020159900000000003
1.050842,0.0005711970000000001
1.0519159999999999,-0.000408798
1.052991,0.000582397
1.054065,-5.5999756000000005e-05
1.05514,-0.0005767970000000001
1.056214,0.0009967950000000002
1.057289,-0.00038639800000000004
1.058363,-0.000828796
1.0594379999999999,0.001097595
1.060512,-0.00037519800000000004
1.061587,-0.000783996
1.0626609999999999,0.000991195
1.063736,-0.00036399800000000003
1.06481,-0.000156799
1.065885,0.0005263970000000001
1.066959,-0.00044239800000000004
1.068034,0.000582397
1.069108,-0.00012319900000000002
1.0701829999999999,-0.000632797
1.071257,0.001007995
1.0723319999999998,-0.00037519800000000004
1.0734059999999999,-0.000828796
1.074481,0.001108795
1.075555,-0.00040319800000000007
1.076629,-0.0007615960000000001
1.077704,0.000991195
1.078778,-0.00038079800000000006
1.079853,-0.00010079900000000001
1.080927,0.00048719700000000003
1.082002,-0.00045359800000000004
1.083076,0.000643997
1.0841509999999999,-0.00011759900000000001
1.0852249999999999,-0.000610397
1.0863,0.0010471950000000001
1.0873739999999998,-0.00038639800000000004
1.088449,-0.0008399960000000001
1.089523,0.0011255950000000003
1.090598,-0.00037519800000000004
1.091672,-0.000722396
1.092747,0.0009967950000000002
1.093821,-0.00034159800000000003
1.0948959999999999,-2.7999878000000003e-05
1.0959699999999999,0.000498397
1.097045,-0.00040319800000000007
1.0981189999999998,0.0007111960000000001
1.099194,-0.00012319900000000002
1.100268,-0.0006047970000000001
1.101343,0.0010695950000000002
1.102417,-0.00037519800000000004
1.103492,-0.0008399960000000001
1.104566,0.0011199950000000001
1.1056409999999999,-0.000391998
1.106715,-0.0007055960000000001
1.107789,0.000946395
1.1088639999999998,-0.00038079800000000006
1.1099379999999999,-5.5999750000000005e-06
1.111013,0.000408798
1.112087,-0.00045919700000000006
1.113162,0.000722396
1.114236,-0.00016239900000000003
1.115311,-0.000627197
1.116385,0.0010695950000000002
1.11746,-0.00039759800000000004
1.118534,-0.0008511960000000001
1.1196089999999999,0.0011199950000000001
1.1206829999999999,-0.00040319800000000007
1.121758,-0.000699996
1.122832,0.0009015960000000001
1.123907,-0.00039759800000000004
1.124981,2.7999878000000003e-05
1.126056,0.00036399800000000003
1.12713,-0.0004759970000000001
1.128205,0.000744796
1.129279,-0.00019039900000000003
1.1303539999999999,-0.0006495970000000001
1.1314279999999999,0.001075195
1.132503,-0.00039759800000000004
1.133577,-0.0008567960000000001
1.134652,0.0011031950000000002
1.135726,-0.00037519800000000004
1.1368,-0.000655197
1.137875,0.0009071960000000001
1.138949,-0.00038639800000000004
1.140024,8.3999632e-05
1.141098,0.000335998
1.1421729999999999,-0.0004759970000000001
1.143247,0.0007783960000000001
1.1443219999999998,-0.00022959800000000002
1.1453959999999999,-0.0006831970000000001
1.146471,0.0010695950000000002
1.147545,-0.00040319800000000007
1.14862,-0.0008679960000000001
1.149694,0.001114395
1.150769,-0.00038639800000000004
1.151843,-0.0006159970000000001
1.1529179999999999,0.0008791960000000001
1.153992,-0.000391998
1.1550669999999998,0.00013439900000000003
1.1561409999999999,0.00030799800000000003
1.157216,-0.000470397
1.15829,0.000800796
1.159365,-0.00024639800000000005
1.160439,-0.0006831970000000001
1.161514,0.001080795
1.162588,-0.00040319800000000007
1.163663,-0.0008567960000000001
1.164737,0.0011031950000000002
1.165811,-0.00038639800000000004
1.1668859999999999,-0.0005767970000000001
1.1679599999999999,0.0008847960000000001
1.169035,-0.00035279800000000003
1.1701089999999998,0.000223999
1.171184,0.00030239800000000005
1.172258,-0.00045359800000000004
1.173333,0.0008679960000000001
1.174407,-0.00022959800000000002
1.175482,-0.000677597
1.176556,0.0011031950000000002
1.1776309999999999,-0.00040319800000000007
1.178705,-0.0008623960000000001
1.17978,0.0010919950000000001
1.1808539999999998,-0.000391998
1.181929,-0.000543197
1.183003,0.0008399960000000001
1.184078,-0.00037519800000000004
1.185152,0.00024079800000000002
1.186227,0.00022959800000000002
1.187301,-0.000515197
1.1883759999999999,0.0008399960000000001
1.18945,-0.000285598
1.190525,-0.0007279960000000001
1.1915989999999999,0.001080795
1.1926729999999999,-0.00042559800000000007
1.193748,-0.000873596
1.194822,0.0010919950000000001
1.195897,-0.00038639800000000004
1.196971,-0.000520797
1.198046,0.0008063960000000001
1.19912,-0.00039759800000000004
1.200195,0.000274398
1.201269,0.00019039900000000003
1.2023439999999999,-0.0005095970000000001
1.2034179999999999,0.0008567960000000001
1.204493,-0.00030239800000000005
1.205567,-0.000722396
1.206642,0.0011031950000000002
1.207716,-0.000414398
1.208791,-0.0008679960000000001
1.209865,0.001097595
1.21094,-0.00037519800000000004
1.212014,-0.00048719700000000003
1.2130889999999999,0.0007783960000000001
1.2141629999999999,-0.00038639800000000004
1.215238,0.00031919800000000003
1.2163119999999998,0.00019039900000000003
1.217387,-0.00048719700000000003
1.218461,0.000895996
1.219535,-0.000291198
1.22061,-0.0007055960000000001
1.221684,0.001097595
1.222759,-0.00038639800000000004
1.223833,-0.000845596
1.2249079999999999,0.001075195
1.225982,-0.000358398
1.2270569999999998,-0.00044239800000000004
1.2281309999999999,0.0007503960000000001
1.229206,-0.00038639800000000004
1.23028,0.000335998
1.231355,0.00013439900000000003
1.232429,-0.000515197
1.233504,0.0008847960000000001
1.234578,-0.000330398
1.235653,-0.000755996
1.236727,0.0010695950000000002
1.2378019999999998,-0.00040319800000000007
1.2388759999999999,-0.0008623960000000001
1.239951,0.001052795
1.241025,-0.00039759800000000004
1.2421,-0.00041999800000000004
1.243174,0.000716796
1.244249,-0.00039759800000000004
1.245323,0.000358398
1.246397,0.00010079900000000001
1.247472,-0.000515197
1.248546,0.0009071960000000001
1.2496209999999999,-0.00032479800000000006
1.250695,-0.000755996
1.25177,0.0010471950000000001
1.2528439999999998,-0.000436798
1.253919,-0.0008791960000000001
1.254993,0.0010023950000000001
1.256068,-0.000408798
1.257142,-0.00042559800000000007
1.258217,0.000671997
1.259291,-0.00039759800000000004
1.2603659999999999,0.00039759800000000004
1.26144,8.3999632e-05
1.262515,-0.000515197
1.2635889999999999,0.0009407950000000001
1.264664,-0.000330398
1.265738,-0.0007503960000000001
1.266813,0.0010919950000000001
1.267887,-0.000391998
1.268962,-0.000828796
1.270036,0.0010471950000000001
1.2711109999999999,-0.00036399800000000003
1.272185,-0.00034719800000000006
1.273259,0.0006663970000000001
1.2743339999999999,-0.000408798
1.2754079999999999,0.00043119800000000004
1.276483,3.9199832000000005e-05
1.2775569999999998,-0.000543197
1.278632,0.0009351950000000001
1.279706,-0.00035279800000000003
1.280781,-0.0007783960000000001
1.281855,0.0010863950000000002
1.28293,-0.00039759800000000004
1.284004,-0.000828796
1.2850789999999999,0.0010303950000000001
1.2861529999999999,-0.00038079800000000006
1.287228,-0.00031919800000000003
1.2883019999999998,0.0006383970000000001
1.289377,-0.00040319800000000007
1.290451,0.00048719700000000003
1.291526,1.6799928e-05
1.2926,-0.000531997
1.293675,0.0009743950000000001
1.294749,-0.00035279800000000003
1.2958239999999999,-0.000783996
1.2968979999999999,0.0011199950000000001
1.297973,-0.000408798
1.2990469999999998,-0.000828796
1.300122,0.001035995
1.301196,-0.000369598
1.30227,-0.00026879800000000005
1.303345,0.0006159970000000001
1.304419,-0.00041999800000000004
1.305494,0.000537597
1.306568,-1.1199951000000002e-05
1.3076429999999999,-0.000565597
1.308717,0.000991195
1.3097919999999998,-0.000369598
1.3108659999999999,-0.0008063960000000001
1.311941,0.001114395
1.313015,-0.00039759800000000004
1.31409,-0.0008063960000000001
1.315164,0.0009967950000000002
1.316239,-0.00037519800000000004
1.317313,-0.000223999
1.318388,0.000565597
1.319462,-0.00039759800000000004
1.3205369999999998,0.0005767970000000001
1.3216109999999999,-3.3599856e-05
1.322686,-0.0005767970000000001
1.32376,0.001019195
1.324835,-0.00038079800000000006
1.325909,-0.0008231960000000001
1.326984,0.0011255950000000003
1.328058,-0.000391998
1.329133,-0.0007727960000000001
1.330207,0.001024795
1.331281,-0.00037519800000000004
1.3323559999999999,-0.00017359900000000003
1.33343,0.0005487970000000001
1.3345049999999998,-0.00042559800000000007
1.3355789999999998,0.000627197
1.336654,-5.5999756000000005e-05
1.337728,-0.0005767970000000001
1.338803,0.0010303950000000001
1.339877,-0.000358398
1.340952,-0.000800796
1.342026,0.0011255950000000003
1.3431009999999999,-0.00038079800000000006
1.344175,-0.0007503960000000001
1.3452499999999998,0.001007995
1.3463239999999999,-0.00037519800000000004
1.347399,-0.00011199900000000001
1.348473,0.000515197
1.349548,-0.000414398
1.350622,0.0006495970000000001
1.351697,-9.5199592e-05
1.352771,-0.000587997
1.3538459999999999,0.001035995
1.35492,-0.00038639800000000004
1.3559949999999998,-0.000828796
1.3570689999999999,0.001097595
1.358144,-0.00038079800000000006
1.359218,-0.000739196
1.360293,0.000968795
1.361367,-0.000358398
1.362441,-6.7199712e-05
1.363516,0.00048719700000000003
1.36459,-0.00043119800000000004
1.365665,0.000699996
1.366739,-0.00012319900000000002
1.3678139999999999,-0.0006159970000000001
1.3688879999999999,0.0010303950000000001
1.369963,-0.000408798
1.3710369999999998,-0.0008567960000000001
1.372112,0.0011199950000000001
1.373186,-0.000391998
1.374261,-0.0007055960000000001
1.375335,0.000963195
1.37641,-0.00038079800000000006
1.377484,-5.5999750000000005e-06
1.3785589999999999,0.0004759970000000001
1.3796329999999999,-0.00042559800000000007
1.380708,0.0007279960000000001
1.3817819999999998,-0.000145599
1.382857,-0.0006215970000000001
1.383931,0.0010695950000000002
1.385006,-0.00039759800000000004
1.38608,-0.0008567960000000001
1.387155,0.001114395
1.388229,-0.00040319800000000007
1.3893039999999999,-0.000716796
1.390378,0.0009295950000000001
1.3914529999999998,-0.000391998
1.3925269999999998,5.5999750000000005e-06
1.3936009999999999,0.00040319800000000007
1.394676,-0.00045359800000000004
1.39575,0.0007279960000000001
1.396825,-0.000179199
1.397899,-0.0006383970000000001
1.398974,0.001075195
1.400048,-0.000391998
1.401123,-0.0008511960000000001
1.402197,0.001131195
1.4032719999999999,-0.00038079800000000006
1.4043459999999999,-0.000660797
1.405421,0.0009351950000000001
1.4064949999999998,-0.00038079800000000006
1.40757,5.5999756000000005e-05
1.408644,0.000369598
1.409719,-0.00045919700000000006
1.410793,0.0007615960000000001
1.411868,-0.000195999
1.412942,-0.000716796
1.4140169999999999,0.0009855950000000001
1.4150909999999999,-0.0004759970000000001
1.416166,-0.000923995
1.4172399999999998,0.001063995
1.418315,-0.00043119800000000004
1.419389,-0.000677597
1.420463,0.0008903960000000001
1.421538,-0.00039759800000000004
1.422612,8.959960800000002e-05
1.423687,0.00034159800000000003
1.424761,-0.00046479700000000003
1.4258359999999999,0.000789596
1.42691,-0.00021279900000000003
1.4279849999999998,-0.000660797
1.4290589999999999,0.0010863950000000002
1.430134,-0.00039759800000000004
1.431208,-0.0008623960000000001
1.432283,0.0011199950000000001
1.433357,-0.00038639800000000004
1.434432,-0.0006215970000000001
1.435506,0.0008903960000000001
1.4365809999999999,-0.00038639800000000004
1.437655,0.00013439900000000003
1.4387299999999998,0.00031919800000000003
1.4398039999999999,-0.00046479700000000003
1.440879,0.000811996
1.441953,-0.00022959800000000002
1.443028,-0.000688796
1.444102,0.001052795
1.445177,-0.000414398
1.446251,-0.000873596
1.447325,0.0010863950000000002
1.4484,-0.00038079800000000006
1.449474,-0.000599197
1.4505489999999999,0.0008623960000000001
1.4516229999999999,-0.000391998
1.452698,0.00016239900000000003
1.4537719999999998,0.00026879800000000005
1.454847,-0.00048719700000000003
1.455921,0.000828796
1.456996,-0.000251998
1.45807,-0.000699996
1.459145,0.0010863950000000002
1.460219,-0.000414398
1.4612939999999999,-0.0008791960000000001
1.462368,0.0011031950000000002
1.4634429999999998,-0.000391998
1.4645169999999998,-0.0005767970000000001
1.465592,0.0008399960000000001
1.466666,-0.00039759800000000004
1.467741,0.000195999
1.468815,0.000251998
1.46989,-0.00048719700000000003
1.470964,0.0008511960000000001
1.4720389999999999,-0.00026879800000000005
1.473113,-0.0007055960000000001
1.474187,0.001097595
1.4752619999999999,-0.00039759800000000004
1.4763359999999999,-0.0008623960000000001
1.477411,0.0010919950000000001
1.4784849999999998,-0.00037519800000000004
1.47956,-0.0005543970000000001
1.480634,0.000811996
1.481709,-0.00039759800000000004
1.482783,0.00024079800000000002
1.483858,0.000218399
1.484932,-0.000503997
1.4860069999999999,0.0008567960000000001
1.4870809999999999,-0.000291198
1.488156,-0.000722396
1.4892299999999998,0.001052795
1.490305,-0.00042559800000000007
1.491379,-0.0008903960000000001
1.492454,0.001063995
1.493528,-0.00037519800000000004
1.494603,-0.0005095970000000001
1.495677,0.000800796
1.4967519999999999,-0.000369598
1.4978259999999999,0.00026879800000000005
1.498901,0.00020159900000000003
1.4999749999999998,-0.00048159700000000006
1.498901,0.0008791960000000001
1.4978259999999999,-0.000274398
1.4967519999999999,-0.0007055960000000001
1.495677,0.0010863950000000002
1.494603,-0.000391998
1.493528,-0.0008623960000000001
1.492454,0.001080795
1.491379,-0.000369598
1.490305,-0.00048159700000000006
1.4892299999999998,0.0007727960000000001
1.488156,-0.00038079800000000006
1.4870809999999999,0.00030239800000000005
1.4860069999999999,0.00016239900000000003
1.484932,-0.0004927970000000001
1.483858,0.0008903960000000001
1.482783,-0.000296798
1.481709,-0.000716796
1.480634,0.0010863950000000002
1.47956,-0.00039759800000000004
1.4784849999999998,-0.0008567960000000001
1.477411,0.001063995
1.4763359999999999,-0.00038079800000000006
1.4752619999999999,-0.000447998
1.474187,0.000744796
1.473113,-0.00039759800000000004
1.4720389999999999,0.00035279800000000003
1.470964,0.00013439900000000003
1.46989,-0.0004927970000000001
1.468815,0.000912796
1.467741,-0.00030799800000000003
1.466666,-0.0007503960000000001
1.465592,0.0010863950000000002
1.4645169999999998,-0.00038079800000000006
1.4634429999999998,-0.000834396
1.462368,0.0010695950000000002
1.4612939999999999,-0.00034159800000000003
1.460219,-0.000369598
1.459145,0.000744796
1.45807,-0.000358398
1.456996,0.000414398
1.455921,0.00010639900000000001
1.454847,-0.000503997
1.4537719999999998,0.000946395
1.452698,-0.000296798
1.4516229999999999,-0.000722396
1.4505489999999999,0.001114395
1.449474,-0.000369598
1.4484,-0.000811996
1.447325,0.0010695950000000002
1.446251,-0.00034159800000000003
1.445177,-0.00034159800000000003
1.444102,0.000722396
1.443028,-0.00034719800000000006
1.441953,0.000470397
1.440879,0.000145599
1.4398039999999999,-0.000414398
1.4387299999999998,0.001080795
1.437655,-0.000223999
1.4365809999999999,-0.0006663970000000001
1.435506,0.001215194
1.434432,-0.00032479800000000006
1.433357,-0.000789596
1.432283,0.0010919950000000001
1.431208,-0.000369598
1.430134,-0.000335998
1.4290589999999999,0.000587997
1.4279849999999998,-0.000447998
1.42691,0.00046479700000000003
1.4258359999999999,5.0399780000000004e-05
1.424761,-0.0005543970000000001
1.423687,0.000979995
1.422612,-0.00034719800000000006
1.421538,-0.0007783960000000001
1.420463,0.0011255950000000003
1.419389,-0.00040319800000000007
1.418315,-0.0008399960000000001
1.4172399999999998,0.001019195
1.416166,-0.00042559800000000007
1.4150909999999999,-0.000335998
1.4140169999999999,0.000582397
1.412942,-0.000470397
1.411868,0.0004927970000000001
1.410793,-2.2399902000000004e-05
1.409719,-0.000587997
1.408644,0.001007995
1.40757,-0.00037519800000000004
1.4064949999999998,-0.000817596
1.405421,0.001035995
1.4043459999999999,-0.000632797
1.4032719999999999,-0.001164794
1.402197,0.0005767970000000001
1.401123,-0.001058395
1.400048,-0.0008231960000000001
1.398974,0.00020159900000000003
1.397899,-0.0007503960000000001
1.396825,0.00034159800000000003
1.39575,-0.00011759900000000001
1.394676,-0.0006047970000000001
1.3936009999999999,0.001063995
1.3925269999999998,-0.00040319800000000007
1.3914529999999998,-0.0009407950000000001
1.390378,0.001075195
1.3893039999999999,-0.0005263970000000001
1.388229,-0.000991195
1.387155,0.000912796
1.38608,-0.00038079800000000006
1.385006,-0.00011199900000000001
1.383931,0.0007783960000000001
1.382857,-0.000139999
1.3817819999999998,0.000968795
1.380708,0.000408798
1.3796329999999999,-5.5999756000000005e-05
1.3785589999999999,0.001573593
1.377484,0.000145599
1.37641,-0.000263198
1.375335,0.0016631920000000002
1.374261,7.279968000000001e-05
1.373186,-0.000296798
1.372112,0.0014727930000000002
1.3710369999999998,-5.0399780000000004e-05
1.369963,6.7199712e-05
1.3688879999999999,0.0006047970000000001
1.3678139999999999,-0.000503997
1.366739,0.000515197
1.365665,-0.00020159900000000003
1.36459,-0.0007503960000000001
1.363516,0.000946395
1.362441,-0.000408798
1.361367,-0.000834396
1.360293,0.001181594
1.359218,-0.000279998
1.358144,-0.000643997
1.3570689999999999,0.0011031950000000002
1.3559949999999998,-0.000296798
1.35492,-5.0399780000000004e-05
1.3538459999999999,0.000515197
1.352771,-0.00046479700000000003
1.351697,0.000610397
1.350622,-0.000156799
1.349548,-0.000677597
1.348473,0.001007995
1.347399,-0.00040319800000000007
1.3463239999999999,-0.0008399960000000001
1.3452499999999998,0.001131195
1.344175,-0.00036399800000000003
1.3431009999999999,-0.0006831970000000001
1.342026,0.001019195
1.340952,-0.00035279800000000003
1.339877,-2.2399902000000004e-05
1.338803,0.00048159700000000006
1.337728,-0.00046479700000000003
1.336654,0.000671997
1.3355789999999998,-0.00016239900000000003
1.3345049999999998,-0.000671997
1.33343,0.001024795
1.3323559999999999,-0.000408798
1.331281,-0.0008623960000000001
1.330207,0.0011199950000000001
1.329133,-0.00038079800000000006
1.328058,-0.000688796
1.326984,0.000968795
1.325909,-0.000369598
1.324835,1.6799928e-05
1.32376,0.00044239800000000004
1.322686,-0.00045359800000000004
1.3216109999999999,0.000722396
1.3205369999999998,-0.00016239900000000003
1.319462,-0.000655197
1.318388,0.001063995
1.317313,-0.00039759800000000004
1.316239,-0.0008623960000000001
1.315164,0.0011255950000000003
1.31409,-0.00038079800000000006
1.313015,-0.000660797
1.311941,0.0009519950000000001
1.3108659999999999,-0.00037519800000000004
1.3097919999999998,5.0399780000000004e-05
1.308717,0.000391998
1.3076429999999999,-0.00046479700000000003
1.306568,0.000755996
1.305494,-0.000184799
1.304419,-0.000660797
1.303345,0.0010695950000000002
1.30227,-0.00040319800000000007
1.301196,-0.0008679960000000001
1.300122,0.0011199950000000001
1.2990469999999998,-0.00038639800000000004
1.297973,-0.0006495970000000001
1.2968979999999999,0.000912796
1.2958239999999999,-0.000391998
1.294749,7.839966400000001e-05
1.293675,0.00034719800000000006
1.2926,-0.00048719700000000003
1.291526,0.000767196
1.290451,-0.000218399
1.289377,-0.0006831970000000001
1.2883019999999998,0.0010695950000000002
1.287228,-0.00039759800000000004
1.2861529999999999,-0.0008679960000000001
1.2850789999999999,0.0011199950000000001
1.284004,-0.00038079800000000006
1.28293,-0.0006215970000000001
1.281855,0.0008847960000000001
1.280781,-0.00040319800000000007
1.279706,0.00011759900000000001
1.278632,0.000296798
1.2775569999999998,-0.0004927970000000001
1.276483,0.0007951960000000001
1.2754079999999999,-0.00023519800000000002
1.2743339999999999,-0.0006943960000000001
1.273259,0.001080795
1.272185,-0.00037519800000000004
1.2711109999999999,-0.000828796
1.270036,0.001052795
1.268962,-0.00036399800000000003
1.267887,-0.000565597
1.266813,0.000817596
1.265738,-0.000369598
1.264664,0.000167999
1.2635889999999999,0.000251998
1.262515,-0.00045919700000000006
1.26144,0.000800796
1.2603659999999999,-0.00024639800000000005
1.259291,-0.0006663970000000001
1.258217,0.001035995
1.257142,-0.000391998
1.256068,-0.0008399960000000001
1.254993,0.001041595
1.253919,-0.00036399800000000003
1.2528439999999998,-0.0005263970000000001
1.25177,0.000800796
1.250695,-0.00036399800000000003
1.2496209999999999,0.00022959800000000002
1.248546,0.00023519800000000002
1.247472,-0.000447998
1.246397,0.0008399960000000001
1.245323,-0.00024639800000000005
1.244249,-0.000671997
1.243174,0.0010471950000000001
1.2421,-0.00038639800000000004
1.241025,-0.0008399960000000001
1.239951,0.001041595
1.2388759999999999,-0.00036399800000000003
1.2378019999999998,-0.0004927970000000001
1.236727,0.0007727960000000001
1.235653,-0.00036399800000000003
1.234578,0.00026879800000000005
1.233504,0.00019039900000000003
1.232429,-0.000470397
1.231355,0.0008399960000000001
1.23028,-0.000285598
1.229206,-0.000699996
1.2281309999999999,0.001041595
1.2270569999999998,-0.000391998
1.225982,-0.000834396
1.2249079999999999,0.0010303950000000001
1.223833,-0.000358398
1.222759,-0.00045359800000000004
1.221684,0.0007335960000000001
1.22061,-0.00038079800000000006
1.219535,0.00030239800000000005
1.218461,0.000139999
1.217387,-0.000498397
1.2163119999999998,0.0008623960000000001
1.215238,-0.000296798
1.2141629999999999,-0.0007055960000000001
1.2130889999999999,0.001063995
1.212014,-0.000369598
1.21094,-0.000811996
1.209865,0.001041595
1.208791,-0.000358398
1.207716,-0.000408798
1.206642,0.000699996
1.205567,-0.000391998
1.204493,0.00034719800000000006
1.2034179999999999,0.00010079900000000001
1.2023439999999999,-0.000503997
1.201269,0.0008847960000000001
1.200195,-0.00030799800000000003
1.19912,-0.000722396
1.198046,0.001058395
1.196971,-0.00038079800000000006
1.195897,-0.000817596
1.194822,0.0010135950000000002
1.193748,-0.000369598
1.1926729999999999,-0.00038079800000000006
1.1915989999999999,0.000655197
1.190525,-0.00040319800000000007
1.18945,0.00038639800000000004
1.1883759999999999,4.479980400000001e-05
1.187301,-0.000520797
1.186227,0.0008903960000000001
1.185152,-0.000335998
1.184078,-0.0007503960000000001
1.183003,0.0010471950000000001
1.181929,-0.000391998
1.1808539999999998,-0.000811996
1.17978,0.0010023950000000001
1.178705,-0.000358398
1.1776309999999999,-0.00031919800000000003
1.176556,0.0006383970000000001
1.175482,-0.000391998
1.174407,0.000436798
1.173333,3.3599856e-05
1.172258,-0.0005263970000000001
1.171184,0.000923995
1.1701089999999998,-0.000335998
1.169035,-0.0007503960000000001
1.1679599999999999,0.001063995
1.1668859999999999,-0.00037519800000000004
1.165811,-0.000789596
1.164737,0.0010023950000000001
1.163663,-0.000358398
1.162588,-0.000274398
1.161514,0.000610397
1.160439,-0.00038639800000000004
1.159365,0.00048719700000000003
1.15829,1.1199951000000002e-05
1.157216,-0.000531997
1.1561409999999999,0.000946395
1.1550669999999998,-0.00034159800000000003
1.153992,-0.0007615960000000001
1.1529179999999999,0.001063995
1.151843,-0.00037519800000000004
1.150769,-0.0007783960000000001
1.149694,0.000991195
1.14862,-0.00035279800000000003
1.147545,-0.00023519800000000002
1.146471,0.0005767970000000001
1.1453959999999999,-0.00039759800000000004
1.1443219999999998,0.0005263970000000001
1.143247,-2.7999878000000003e-05
1.1421729999999999,-0.0005487970000000001
1.141098,0.0009519950000000001
1.140024,-0.00036399800000000003
1.138949,-0.000783996
1.137875,0.001052795
1.1368,-0.00038639800000000004
1.135726,-0.000767196
1.134652,0.000963195
1.133577,-0.000358398
1.132503,-0.000179199
1.1314279999999999,0.000537597
1.1303539999999999,-0.00040319800000000007
1.129279,0.000559997
1.128205,-5.5999756000000005e-05
1.12713,-0.000559997
1.126056,0.0009743950000000001
1.124981,-0.00036399800000000003
1.123907,-0.0007951960000000001
1.122832,0.001058395
1.121758,-0.00038079800000000006
1.1206829999999999,-0.000744796
1.1196089999999999,0.0009407950000000001
1.118534,-0.00036399800000000003
1.11746,-0.000145599
1.116385,0.00048719700000000003
1.115311,-0.00041999800000000004
1.114236,0.000599197
1.113162,-9.5199592e-05
1.112087,-0.000582397
1.111013,0.0009743950000000001
1.1099379999999999,-0.00037519800000000004
1.1088639999999998,-0.0008063960000000001
1.107789,0.001063995
1.106715,-0.00038079800000000006
1.1056409999999999,-0.000722396
1.104566,0.0009351950000000001
1.103492,-0.000358398
1.102417,-0.00011199900000000001
1.101343,0.00048719700000000003
1.100268,-0.00044239800000000004
1.099194,0.000677597
1.0981189999999998,-0.00011759900000000001
1.097045,-0.0006215970000000001
1.0959699999999999,0.0010135950000000002
1.0948959999999999,-0.000369598
1.093821,-0.000811996
1.092747,0.001063995
1.091672,-0.000369598
1.090598,-0.000699996
1.089523,0.000912796
1.088449,-0.00036399800000000003
1.0873739999999998,-3.9199832000000005e-05
1.0863,0.00041999800000000004
1.0852249999999999,-0.00041999800000000004
1.0841509999999999,0.000677597
1.083076,-0.000128799
1.082002,-0.000587997
1.080927,0.0010135950000000002
1.079853,-0.000369598
1.078778,-0.0008063960000000001
1.077704,0.0010695950000000002
1.076629,-0.00036399800000000003
1.075555,-0.0006663970000000001
1.074481,0.000895996
1.0734059999999999,-0.00036399800000000003
1.0723319999999998,0.0
1.071257,0.00038079800000000006
1.0701829999999999,-0.00044239800000000004
1.069108,0.0006831970000000001
1.068034,-0.000179199
1.066959,-0.000632797
1.065885,0.000991195
1.06481,-0.00039759800000000004
1.063736,-0.000828796
1.0626609999999999,0.001058395
1.061587,-0.00036399800000000003
1.060512,-0.0006383970000000001
1.0594379999999999,0.0008903960000000001
1.058363,-0.00035279800000000003
1.057289,4.479980400000001e-05
1.056214,0.00037519800000000004
1.05514,-0.00043119800000000004
1.054065,0.0007111960000000001
1.052991,-0.000184799
1.0519159999999999,-0.000632797
1.050842,0.001007995
1.049767,-0.000391998
1.0486929999999999,-0.000834396
1.047618,0.001052795
1.046544,-0.00036399800000000003
1.04547,-0.0006159970000000001
1.044395,0.000873596
1.043321,-0.00035279800000000003
1.042246,7.839966400000001e-05
1.041172,0.00034159800000000003
1.040097,-0.000436798
1.039023,0.000739196
1.0379479999999999,-0.000195999
1.0368739999999999,-0.000627197
1.035799,0.001024795
1.034725,-0.00038639800000000004
1.03365,-0.000828796
1.032576,0.0010471950000000001
1.031501,-0.000369598
1.030427,-0.000599197
1.029352,0.0008399960000000001
1.028278,-0.000369598
1.0272029999999999,0.00010639900000000001
1.0261289999999998,0.00030239800000000005
1.025054,-0.000447998
1.02398,0.000767196
1.022905,-0.00021279900000000003
1.021831,-0.0006383970000000001
1.020756,0.001035995
1.019682,-0.00038079800000000006
1.018608,-0.000828796
1.017533,0.001052795
1.016459,-0.00036399800000000003
1.015384,-0.0005767970000000001
1.01431,0.0008231960000000001
1.0132349999999999,-0.000369598
1.0121609999999999,0.00015119900000000003
1.011086,0.000274398
1.010012,-0.000447998
1.008937,0.000789596
1.007863,-0.000223999
1.006788,-0.000655197
1.005714,0.001035995
1.004639,-0.00038079800000000006
1.003565,-0.000828796
1.0024899999999999,0.001052795
1.0014159999999999,-0.00036399800000000003
1.000341,-0.000543197
0.9992669999999999,0.0008063960000000001
0.998192,-0.000369598
0.997118,0.000195999
0.9960429999999999,0.00024079800000000002
0.994969,-0.00046479700000000003
0.9938939999999999,0.0008063960000000001
0.9928199999999999,-0.000251998
0.991745,-0.0006831970000000001
0.990671,0.001097595
0.989597,-0.00040319800000000007
0.9885219999999999,-0.0008791960000000001
0.987448,0.001097595
0.9863729999999999,-0.00038639800000000004
0.9852989999999999,-0.000537597
0.984224,0.0008231960000000001
0.98315,-0.00040319800000000007
0.9820749999999999,0.00024639800000000005
0.9810009999999999,0.000223999
0.979926,-0.0005095970000000001
0.9788519999999999,0.0008679960000000001
0.977777,-0.000274398
0.976703,-0.000716796
0.9756279999999999,0.001108795
0.9745539999999999,-0.000391998
0.973479,-0.0008623960000000001
0.972405,0.001108795
0.9713299999999999,-0.00038079800000000006
0.970256,-0.0004927970000000001
0.969181,0.0008063960000000001
0.9681069999999999,-0.00040319800000000007
0.967032,0.00030239800000000005
0.965958,0.000195999
0.9648829999999999,-0.0005263970000000001
0.9638089999999999,0.0009015960000000001
0.962735,-0.000335998
0.96166,-0.0009071960000000001
0.9605859999999999,0.0007335960000000001
0.959511,-0.0008679960000000001
0.958437,-0.0013383940000000001
0.9573619999999999,0.0007503960000000001
0.9562879999999999,-0.00048719700000000003
0.955213,-0.00041999800000000004
0.954139,0.0008511960000000001
0.9530639999999999,-0.00040319800000000007
0.95199,0.00023519800000000002
0.950915,1.1199951000000002e-05
0.9498409999999999,-0.000660797
0.948766,0.0009015960000000001
0.947692,-0.000156799
0.9466169999999999,-0.000537597
0.9455429999999999,0.001304794
0.944468,-0.000223999
0.943394,-0.0007615960000000001
0.9423189999999999,0.0011255950000000003
0.941245,-0.000358398
0.94017,-0.00039759800000000004
0.9390959999999999,0.0007951960000000001
0.938021,-0.000335998
0.936947,0.00041999800000000004
0.9358719999999999,0.00010639900000000001
0.9347979999999999,-0.000627197
0.933724,0.0007727960000000001
0.932649,-0.000515197
0.9315749999999999,-0.0009519950000000001
0.9305,0.000979995
0.929426,-0.000436798
0.9283509999999999,-0.000828796
0.9272769999999999,0.0011367950000000001
0.926202,-0.000223999
0.925128,-0.000128799
0.924053,0.0009575950000000001
0.922979,-0.00019039900000000003
0.921904,0.0006663970000000001
0.9208299999999999,0.00024639800000000005
0.919755,-0.00048159700000000006
0.918681,0.0009855950000000001
0.9176059999999999,-0.000330398
0.916532,-0.000811996
0.915457,0.001080795
0.914383,-0.00043119800000000004
0.913308,-0.000873596
0.912234,0.001035995
0.9111589999999999,-0.000391998
0.9100849999999999,-0.00046479700000000003
0.90901,0.0004759970000000001
0.907936,-0.000515197
0.9068609999999999,0.000330398
0.905787,-0.000156799
0.904713,-0.000755996
0.9036379999999999,0.000811996
0.9025639999999999,-0.00038639800000000004
0.901489,-0.000783996
0.900415,0.001220794
0.8993399999999999,-0.000291198
0.898266,-0.000811996
0.897191,0.0010919950000000001
0.8961169999999999,-0.00040319800000000007
0.895042,-0.000274398
0.893968,0.000716796
0.8928929999999999,-0.00040319800000000007
0.8918189999999999,0.00048719700000000003
0.890744,-3.9199832000000005e-05
0.88967,-0.000677597
0.8885949999999999,0.000912796
0.887521,-0.00045919700000000006
0.886446,-0.0009407950000000001
0.8853719999999999,0.000991195
0.884297,-0.000470397
0.883223,-0.0008567960000000001
0.8821479999999999,0.0009855950000000001
0.8810739999999999,-0.000447998
0.879999,-0.000296798
0.878925,0.0006215970000000001
0.8778499999999999,-0.00044239800000000004
0.876776,0.00048159700000000006
0.875702,-6.7199712e-05
0.8746269999999999,-0.000677597
0.8735529999999999,0.000873596
0.872478,-0.00048159700000000006
0.871404,-0.000968795
0.8703289999999999,0.001019195
0.869255,-0.00048159700000000006
0.86818,-0.000873596
0.8671059999999999,0.001024795
0.866031,-0.000408798
0.864957,-0.000274398
0.8638819999999999,0.0005711970000000001
0.8628079999999999,-0.00044239800000000004
0.861733,0.000582397
0.860659,-5.5999750000000005e-06
0.859584,-0.0006047970000000001
0.85851,0.000946395
0.857435,-0.000543197
0.8563609999999999,-0.0010695950000000002
0.855286,0.000968795
0.854212,-0.0006047970000000001
0.8531369999999999,-0.0008847960000000001
0.852063,0.001058395
0.850988,-0.00046479700000000003
0.849914,-0.00032479800000000006
0.8488399999999999,0.000520797
0.847765,-0.00041999800000000004
0.846691,0.000963195
0.8456159999999999,0.00034159800000000003
0.844542,-3.3599856e-05
0.843467,0.0015063930000000002
0.842393,-0.000330398
0.841318,-0.0009015960000000001
0.840244,0.001237594
0.8391689999999999,-0.000408798
0.8380949999999999,-0.0008399960000000001
0.83702,0.0010135950000000002
0.835946,-0.00041999800000000004
0.8348709999999999,-0.000207199
0.833797,0.0004759970000000001
0.832722,-0.000470397
0.8316479999999999,0.000643997
0.830573,-7.839966400000001e-05
0.829499,-0.000627197
0.8284239999999999,0.001035995
0.8273499999999999,-0.00041999800000000004
0.826275,-0.0008847960000000001
0.825201,0.0011255950000000003
0.8241259999999999,-0.00040319800000000007
0.823052,-0.0007783960000000001
0.821978,0.0010023950000000001
0.8209029999999999,-0.00039759800000000004
0.8198289999999999,-0.000128799
0.818754,0.00048159700000000006
0.81768,-0.00048719700000000003
0.8166049999999999,0.000582397
0.815531,-0.00020159900000000003
0.814456,-0.0006831970000000001
0.8133819999999999,0.0010135950000000002
0.812307,-0.00040319800000000007
0.811233,-0.0008511960000000001
0.8101579999999999,0.0011423950000000003
0.8090839999999999,-0.00039759800000000004
0.808009,-0.000755996
0.806935,0.0009967950000000002
0.8058599999999999,-0.00034719800000000006
0.804786,-1.6799928e-05
0.803711,0.0005095970000000001
0.8026369999999999,-0.00042559800000000007
0.801562,0.000716796
0.800488,-0.00016239900000000003
0.7994129999999999,-0.000627197
0.7983389999999999,0.001080795
0.797264,-0.000414398
0.79619,-0.0008511960000000001
0.795115,0.0011423950000000003
0.794041,-0.00038639800000000004
0.792967,-0.0007055960000000001
0.7918919999999999,0.0009967950000000002
0.7908179999999999,-0.000358398
0.789743,-1.1199951000000002e-05
0.788669,0.000470397
0.787594,-0.00044239800000000004
0.78652,0.000716796
0.785445,-0.00012319900000000002
0.7843709999999999,-0.000677597
0.783296,0.001075195
0.782222,-0.00038639800000000004
0.7811469999999999,-0.0008791960000000001
0.780073,0.0011591940000000001
0.778998,-0.000391998
0.777924,-0.0006943960000000001
0.776849,0.000979995
0.775775,-0.00038639800000000004
0.7746999999999999,2.7999878000000003e-05
0.7736259999999999,0.000436798
0.772551,-0.000447998
0.771477,0.0007615960000000001
0.7704019999999999,-0.000179199
0.769328,-0.0006663970000000001
0.768253,0.0010863950000000002
0.7671789999999999,-0.00041999800000000004
0.766104,-0.0008903960000000001
0.76503,0.0011199950000000001
0.7639549999999999,-0.000408798
0.7628809999999999,-0.0007111960000000001
0.761807,0.0009071960000000001
0.760732,-0.00042559800000000007
0.7596579999999999,1.1199951000000002e-05
0.758583,0.000358398
0.757509,-0.0004927970000000001
0.7564339999999999,0.000739196
0.7553599999999999,-0.00021279900000000003
0.754285,-0.000688796
0.753211,0.0010695950000000002
0.7521359999999999,-0.000414398
0.751062,-0.0009015960000000001
0.749987,0.0010919950000000001
0.7489129999999999,-0.00042559800000000007
0.747838,-0.000722396
0.746764,0.000873596
0.7456889999999999,-0.00044239800000000004
0.7446149999999999,3.3599856e-05
0.74354,0.000313598
0.742466,-0.0005095970000000001
0.7413909999999999,0.0007615960000000001
0.740317,-0.000251998
0.739242,-0.0007111960000000001
0.7381679999999999,0.001097595
0.737093,-0.000408798
0.736019,-0.0009295950000000001
0.734945,0.001097595
0.7338699999999999,-0.00040319800000000007
0.732796,-0.000632797
0.731721,0.0008903960000000001
0.7306469999999999,-0.000414398
0.729572,0.00010639900000000001
0.728498,0.00030239800000000005
0.7274229999999999,-0.000498397
0.726349,0.000800796
0.725274,-0.00024639800000000005
0.7242,-0.000716796
0.723125,0.0010695950000000002
0.722051,-0.00042559800000000007
0.720976,-0.000895996
0.7199019999999999,0.001131195
0.718827,-0.000391998
0.717753,-0.000610397
0.7166779999999999,0.0008791960000000001
0.715604,-0.00039759800000000004
0.714529,0.000156799
0.713455,0.000285598
0.71238,-0.0004927970000000001
0.711306,0.0008231960000000001
0.710231,-0.00024639800000000005
0.7091569999999999,-0.000660797
0.708083,0.0011255950000000003
0.707008,-0.000369598
0.705934,-0.000895996
0.704859,0.0011199950000000001
0.703785,-0.00036399800000000003
0.70271,-0.000627197
0.7016359999999999,0.000873596
0.700561,-0.00037519800000000004
0.699487,0.00015119900000000003
0.6984119999999999,0.000285598
0.697338,-0.00048719700000000003
0.696263,0.000834396
0.695189,-0.000218399
0.694114,-0.0007055960000000001
0.69304,0.001097595
0.6919649999999999,-0.00036399800000000003
0.6908909999999999,-0.0009071960000000001
0.689816,0.0011199950000000001
0.688742,-0.000369598
0.6876669999999999,-0.0006047970000000001
0.686593,0.0008567960000000001
0.685518,-0.00037519800000000004
0.6844439999999999,0.000195999
0.683369,0.00024639800000000005
0.682295,-0.0005095970000000001
0.6812199999999999,0.000817596
0.6801459999999999,-0.000263198
0.679072,-0.000755996
0.677997,0.0010695950000000002
0.6769229999999999,-0.000391998
0.675848,-0.0009295950000000001
0.674774,0.001097595
0.6736989999999999,-0.00038079800000000006
0.6726249999999999,-0.000582397
0.67155,0.0008063960000000001
0.670476,-0.00041999800000000004
0.669401,0.00019039900000000003
0.668327,0.00019039900000000003
0.667252,-0.000537597
0.6661779999999999,0.000817596
0.665103,-0.00030239800000000005
0.664029,-0.0007615960000000001
0.6629539999999999,0.001063995
0.66188,-0.00039759800000000004
0.660805,-0.0009407950000000001
0.659731,0.001080795
0.658656,-0.00037519800000000004
0.657582,-0.000537597
0.656507,0.000783996
0.6554329999999999,-0.00041999800000000004
0.654358,0.00024079800000000002
0.653284,0.000167999
0.6522089999999999,-0.000531997
0.651135,0.0008679960000000001
0.650061,-0.000285598
0.648986,-0.000767196
0.6479119999999999,0.0010919950000000001
0.646837,-0.000391998
0.645763,-0.000923995
0.6446879999999999,0.0010919950000000001
0.643614,-0.000369598
0.642539,-0.000515197
0.641465,0.000767196
0.64039,-0.000414398
0.639316,0.000291198
0.638241,0.00015119900000000003
0.6371669999999999,-0.000531997
0.636092,0.000895996
0.635018,-0.000291198
0.6339429999999999,-0.000783996
0.632869,0.0010919950000000001
0.631794,-0.00038639800000000004
0.63072,-0.000912796
0.629645,0.001080795
0.628571,-0.00037519800000000004
0.6274959999999999,-0.0004759970000000001
0.6264219999999999,0.000755996
0.625347,-0.000408798
0.624273,0.00030799800000000003
0.6231979999999999,0.00010079900000000001
0.622124,-0.0005711970000000001
0.62105,0.0008791960000000001
0.6199749999999999,-0.00032479800000000006
0.6189009999999999,-0.000800796
0.617826,0.0011031950000000002
0.616752,-0.00038639800000000004
0.6156769999999999,-0.000912796
0.614603,0.001075195
0.613528,-0.00037519800000000004
0.6124539999999999,-0.000447998
0.611379,0.0007279960000000001
0.610305,-0.000408798
0.6092299999999999,0.000358398
0.6081559999999999,0.00010639900000000001
0.607081,-0.0005487970000000001
0.606007,0.000912796
0.604932,-0.00031919800000000003
0.603858,-0.000811996
0.602783,0.0010919950000000001
0.6017089999999999,-0.000391998
0.600634,-0.0009071960000000001
0.59956,0.001075195
0.5984849999999999,-0.000369598
0.597411,-0.00041999800000000004
0.596336,0.0007055960000000001
0.595262,-0.000414398
0.5941879999999999,0.00038639800000000004
0.593113,8.3999632e-05
0.592039,-0.000559997
0.5909639999999999,0.0009351950000000001
0.58989,-0.00030239800000000005
0.588815,-0.000811996
0.587741,0.0010919950000000001
0.586666,-0.00038639800000000004
0.585592,-0.000895996
0.584517,0.0010695950000000002
0.5834429999999999,-0.000369598
0.582368,-0.00038079800000000006
0.581294,0.0006943960000000001
0.5802189999999999,-0.000408798
0.579145,0.00044239800000000004
0.57807,7.839966400000001e-05
0.576996,-0.000565597
0.575921,0.000946395
0.574847,-0.000330398
0.573772,-0.000828796
0.5726979999999999,0.001114395
0.571623,-0.000358398
0.570549,-0.0008567960000000001
0.5694739999999999,0.001075195
0.5684,-0.00034719800000000006
0.567326,-0.00030799800000000003
0.566251,0.000699996
0.5651769999999999,-0.00038639800000000004
0.564102,0.0004927970000000001
0.563028,6.159973199999999e-05
0.5619529999999999,-0.000543197
0.560879,0.000979995
0.559804,-0.000335998
0.55873,-0.000834396
0.557655,0.0011255950000000003
0.556581,-0.00037519800000000004
0.5555059999999999,-0.0008791960000000001
0.5544319999999999,0.001052795
0.553357,-0.000369598
0.552283,-0.00030239800000000005
0.5512079999999999,0.000643997
0.550134,-0.00042559800000000007
0.549059,0.00048719700000000003
0.5479849999999999,-1.1199951000000002e-05
0.54691,-0.000587997
0.545836,0.000979995
0.5447609999999999,-0.00034159800000000003
0.5436869999999999,-0.0008511960000000001
0.542612,0.0010863950000000002
0.541538,-0.00039759800000000004
0.540463,-0.000873596
0.539389,0.0010023950000000001
0.538314,-0.00040319800000000007
0.5372399999999999,-0.000291198
0.5361659999999999,0.000582397
0.535091,-0.00044239800000000004
0.534017,0.000515197
0.532942,-2.2399902000000004e-05
0.531868,-0.000610397
0.530793,0.0009743950000000001
0.5297189999999999,-0.00037519800000000004
0.528644,-0.0008847960000000001
0.52757,0.001075195
0.5264949999999999,-0.00039759800000000004
0.525421,-0.0008623960000000001
0.524346,0.0010135950000000002
0.523272,-0.00038079800000000006
0.522197,-0.00023519800000000002
0.521123,0.000565597
0.520048,-0.000436798
0.5189739999999999,0.000543197
0.517899,-7.839966400000001e-05
0.516825,-0.000610397
0.5157499999999999,0.001063995
0.514676,-0.00034159800000000003
0.513601,-0.0008623960000000001
0.512527,0.001097595
0.511452,-0.00038639800000000004
0.510378,-0.0008231960000000001
0.509304,0.001024795
0.5082289999999999,-0.00036399800000000003
0.507155,-0.00017359900000000003
0.50608,0.000537597
0.505006,-0.00044239800000000004
0.503931,0.0006047970000000001
0.502857,-7.839966400000001e-05
0.501782,-0.000632797
0.5007079999999999,0.001007995
0.499633,-0.00038639800000000004
0.498559,-0.0009015960000000001
0.497484,0.0011199950000000001
0.49640999999999996,-0.00037519800000000004
0.49533499999999997,-0.000817596
0.49426099999999995,0.0009855950000000001
0.49318599999999996,-0.00040319800000000007
0.492112,-0.00015119900000000003
0.491037,0.0004927970000000001
0.489963,-0.000436798
0.488888,0.0006383970000000001
0.48781399999999997,-0.00010639900000000001
0.486739,-0.000655197
0.48566499999999996,0.0010135950000000002
0.48458999999999997,-0.000391998
0.483516,-0.0009071960000000001
0.48244099999999995,0.001114395
0.481367,-0.00038639800000000004
0.48029299999999997,-0.000789596
0.479218,0.000968795
0.47814399999999996,-0.00038639800000000004
0.47706899999999997,-9.5199592e-05
0.475995,0.00044239800000000004
0.47491999999999995,-0.00046479700000000003
0.473846,0.000655197
0.472771,-0.000145599
0.471697,-0.0006663970000000001
0.470622,0.001035995
0.46954799999999997,-0.00038639800000000004
0.468473,-0.000912796
0.46739899999999995,0.0011031950000000002
0.46632399999999996,-0.00038639800000000004
0.46525,-0.000739196
0.464175,0.000946395
0.463101,-0.00037519800000000004
0.462026,-3.3599856e-05
0.460952,0.000408798
0.459877,-0.00045359800000000004
0.45880299999999996,0.0006663970000000001
0.45772799999999997,-0.00017359900000000003
0.456654,-0.0006831970000000001
0.45557899999999996,0.001041595
0.454505,-0.00037519800000000004
0.45343,-0.0009071960000000001
0.452356,0.0011199950000000001
0.45128199999999996,-0.00038639800000000004
0.45020699999999997,-0.0007335960000000001
0.449133,0.000923995
0.44805799999999996,-0.00040319800000000007
0.446984,-1.1199951000000002e-05
0.445909,0.00037519800000000004
0.444835,-0.00044239800000000004
0.44376,0.000716796
0.44268599999999997,-0.00019039900000000003
0.441611,-0.0007727960000000001
0.44053699999999996,0.0008847960000000001
0.43946199999999996,-0.000565597
0.438388,-0.001019195
0.437313,0.0009407950000000001
0.436239,-0.000599197
0.435164,-0.0008623960000000001
0.43409,0.000739196
0.433015,-0.000531997
0.43194099999999996,-5.0399780000000004e-05
0.43086599999999997,0.000263198
0.429792,-0.000531997
0.42871699999999996,0.000677597
0.427643,-0.000296798
0.426568,-0.000716796
0.425494,0.001063995
0.42441999999999996,-0.00031919800000000003
0.42334499999999997,-0.000817596
0.422271,0.0012823940000000003
0.42119599999999996,-0.000139999
0.420122,-0.00043119800000000004
0.419047,0.0011255950000000003
0.417973,-0.00012319900000000002
0.416898,0.00038639800000000004
0.41582399999999997,0.000587997
0.414749,-0.000223999
0.41367499999999996,0.0009575950000000001
0.41259999999999997,-0.00010639900000000001
0.411526,-0.0005767970000000001
0.41045099999999995,0.0012039940000000001
0.409377,-0.00022959800000000002
0.408302,-0.000643997
0.407228,0.001371994
0.406153,-0.00013439900000000003
0.40507899999999997,-0.00038079800000000006
0.404004,0.0010303950000000001
0.40292999999999995,-0.00024079800000000002
0.40185499999999996,0.000274398
0.400781,0.00030799800000000003
0.399706,-0.000503997
0.398632,0.000767196
0.397557,-0.000274398
0.396483,-0.0007615960000000001
0.39540899999999995,0.0010471950000000001
0.39433399999999996,-0.000335998
0.39326,-0.0008511960000000001
0.392185,0.0011031950000000002
0.391111,-0.00035279800000000003
0.390036,-0.0005711970000000001
0.388962,0.0007951960000000001
0.387887,-0.00038079800000000006
0.38681299999999996,0.00022959800000000002
0.38573799999999997,0.00023519800000000002
0.384664,-0.0004927970000000001
0.38358899999999996,0.000828796
0.382515,-0.000263198
0.38144,-0.000739196
0.380366,0.001063995
0.379291,-0.00037519800000000004
0.37821699999999997,-0.0009015960000000001
0.377142,0.001058395
0.37606799999999996,-0.000369598
0.37499299999999997,-0.000515197
0.373919,0.000789596
0.372844,-0.00037519800000000004
0.37177,0.000279998
0.370695,0.00019039900000000003
0.369621,-0.000515197
0.368546,0.0008623960000000001
0.36747199999999997,-0.00026879800000000005
0.366398,-0.000744796
0.365323,0.001075195
0.364249,-0.00037519800000000004
0.363174,-0.0008679960000000001
0.3621,0.001019195
0.361025,-0.00034719800000000006
0.35995099999999997,-0.00045919700000000006
0.358876,0.000722396
0.357802,-0.00037519800000000004
0.35672699999999996,0.00030239800000000005
0.355653,0.00011759900000000001
0.354578,-0.000515197
0.353504,0.000834396
0.352429,-0.000291198
0.351355,-0.0007503960000000001
0.35028,0.0010303950000000001
0.34920599999999996,-0.00036399800000000003
0.34813099999999997,-0.0008567960000000001
0.347057,0.0010023950000000001
0.345982,-0.000358398
0.344908,-0.00042559800000000007
0.343833,0.000671997
0.342759,-0.00039759800000000004
0.341684,0.00034159800000000003
0.34060999999999997,8.3999632e-05
0.339536,-0.000520797
0.338461,0.0008623960000000001
0.337387,-0.00030239800000000005
0.336312,-0.0007615960000000001
0.335238,0.001035995
0.334163,-0.00036399800000000003
0.33308899999999997,-0.0008399960000000001
0.332014,0.0010135950000000002
0.33094,-0.00034159800000000003
0.32986499999999996,-0.00037519800000000004
0.328791,0.000660797
0.327716,-0.00038639800000000004
0.326642,0.000391998
0.325567,6.159973199999999e-05
0.324493,-0.0005263970000000001
0.323418,0.0008847960000000001
0.32234399999999996,-0.000313598
0.32126899999999997,-0.0007727960000000001
0.320195,0.001041595
0.31911999999999996,-0.000358398
0.318046,-0.000828796
0.316971,0.0010023950000000001
0.315897,-0.00034159800000000003
0.314822,-0.00032479800000000006
0.31374799999999997,0.000632797
0.312673,-0.00038639800000000004
0.31159899999999996,0.00043119800000000004
0.310525,2.7999878000000003e-05
0.30945,-0.000543197
0.308376,0.0009071960000000001
0.307301,-0.00031919800000000003
0.30622699999999997,-0.000783996
0.305152,0.0010471950000000001
0.30407799999999996,-0.00035279800000000003
0.30300299999999997,-0.000811996
0.301929,0.0010023950000000001
0.300854,-0.000335998
0.29978,-0.000279998
0.298705,0.000599197
0.297631,-0.00038639800000000004
0.296556,0.000470397
0.29548199999999997,0.0
0.294407,-0.0005543970000000001
0.293333,0.0009183950000000001
0.29225799999999996,-0.000330398
0.291184,-0.000800796
0.290109,0.0010471950000000001
0.289035,-0.000358398
0.28796,-0.000811996
0.286886,0.000979995
0.285811,-0.00034719800000000006
0.28473699999999996,-0.00024079800000000002
0.283663,0.0005711970000000001
0.282588,-0.00039759800000000004
0.281514,0.000503997
0.280439,-2.7999878000000003e-05
0.279365,-0.0005711970000000001
0.27829,0.000923995
0.27721599999999996,-0.00035279800000000003
0.27614099999999997,-0.000828796
0.275067,0.001035995
0.273992,-0.000369598
0.272918,-0.0007951960000000001
0.271843,0.0009575950000000001
0.270769,-0.00035279800000000003
0.269694,-0.00020159900000000003
0.26861999999999997,0.000537597
0.267545,-0.00039759800000000004
0.266471,0.0005767970000000001
0.26539599999999997,-4.479980400000001e-05
0.264322,-0.0006047970000000001
0.263247,0.0009855950000000001
0.262173,-0.000358398
0.261098,-0.0008679960000000001
0.260024,0.0010863950000000002
0.258949,-0.00038639800000000004
0.25787499999999997,-0.0008063960000000001
0.2568,0.0009743950000000001
0.255726,-0.00037519800000000004
0.254652,-0.000156799
0.253577,0.000520797
0.252503,-0.000436798
0.251428,0.000599197
0.25035399999999997,-6.159973199999999e-05
0.249279,-0.000610397
0.24820499999999998,0.001007995
0.24713,-0.00034719800000000006
0.246056,-0.0008567960000000001
0.24498099999999998,0.0010919950000000001
0.24390699999999998,-0.000369598
0.242832,-0.0007727960000000001
0.241758,0.000968795
0.24068299999999998,-0.00038079800000000006
0.239609,-0.00012319900000000002
0.238534,0.000470397
0.23745999999999998,-0.000447998
0.23638499999999998,0.0006383970000000001
0.235311,-8.959960800000002e-05
0.234236,-0.0006159970000000001
0.23316199999999998,0.001024795
0.232087,-0.00034719800000000006
0.231013,-0.0008567960000000001
0.22993799999999998,0.0011031950000000002
0.22886399999999998,-0.000369598
0.227789,-0.000755996
0.226715,0.000923995
0.22564099999999998,-0.00041999800000000004
0.224566,-0.00012319900000000002
0.223492,0.00038079800000000006
0.222417,-0.000520797
0.22134299999999998,0.0006047970000000001
0.220268,-0.00019039900000000003
0.219194,-0.000699996
0.21811899999999998,0.0010023950000000001
0.217045,-0.00034159800000000003
0.21597,-0.000789596
0.214896,0.0012599940000000002
0.21382099999999998,-0.00024079800000000002
0.212747,-0.000565597
0.211672,0.0010919950000000001
0.21059799999999998,-0.00024639800000000005
0.209523,0.00010639900000000001
0.208449,0.0005095970000000001
0.207374,-0.00048719700000000003
0.20629999999999998,0.0006383970000000001
0.205225,-0.000263198
0.204151,-0.0007951960000000001
0.20307599999999998,0.000963195
0.202002,-0.00037519800000000004
0.200927,-0.0008791960000000001
0.199853,0.001198394
0.19877799999999998,-0.000296798
0.197704,-0.0006047970000000001
0.19663,0.0011255950000000003
0.19555499999999998,-0.000207199
0.194481,0.000195999
0.193406,0.0004927970000000001
0.192332,-0.000447998
0.19125699999999998,0.000783996
0.190183,-0.000179199
0.189108,-0.000716796
0.18803399999999998,0.001075195
0.186959,-0.00034159800000000003
0.185885,-0.000873596
0.18481,0.0012095940000000003
0.18373599999999998,-0.000285598
0.182661,-0.0005543970000000001
0.181587,0.0010695950000000002
0.18051199999999998,-0.00026879800000000005
0.179438,0.00019039900000000003
0.178363,0.000408798
0.177289,-0.0004927970000000001
0.17621399999999998,0.0007615960000000001
0.17514,-0.000274398
0.174065,-0.000811996
0.172991,0.001007995
0.17191599999999999,-0.000520797
0.170842,-0.001075195
0.169768,0.001041595
0.16869299999999998,-0.00044239800000000004
0.167619,-0.000677597
0.166544,0.0009015960000000001
0.16547,-0.00044239800000000004
0.16439499999999999,1.1199951000000002e-05
0.163321,0.000139999
0.162246,-0.0007951960000000001
0.16117199999999998,0.00026879800000000005
0.160097,-0.000800796
0.159023,-0.0011871940000000001
0.157948,0.000817596
0.15687399999999999,-0.00034719800000000006
0.155799,-0.0006663970000000001
0.154725,0.0016631920000000002
0.15364999999999998,0.000156799
0.152576,4.479980400000001e-05
0.151501,0.001668792
0.150427,0.000447998
0.14935199999999998,0.0011535940000000002
0.148278,0.000963195
0.147203,0.000139999
0.14612899999999998,0.001377593
0.145054,-0.000195999
0.14398,-0.001035995
0.142905,0.000811996
0.14183099999999998,-0.000873596
0.140757,-0.001271194
0.139682,0.000895996
0.13860799999999998,-0.0005543970000000001
0.137533,-0.000498397
0.136459,0.0008679960000000001
0.135384,-0.000414398
0.13430999999999998,0.0005095970000000001
0.133235,0.00041999800000000004
0.132161,-0.00034719800000000006
0.13108599999999998,0.001192794
0.130012,-0.000184799
0.128937,-0.000789596
0.127863,0.0011199950000000001
0.12678799999999998,-0.0005935970000000001
0.125714,-0.0011199950000000001
0.124639,0.000912796
0.123565,-0.000627197
0.12248999999999999,-0.0006159970000000001
0.121416,0.0006495970000000001
0.12034099999999999,-0.0005543970000000001
0.119267,0.000330398
0.11819199999999999,0.00015119900000000003
0.117118,-0.0004927970000000001
0.116043,0.000968795
0.11496899999999999,-0.00031919800000000003
0.113894,-0.0008063960000000001
0.11281999999999999,0.0010471950000000001
0.111746,-0.0005487970000000001
0.11067099999999999,-0.000968795
0.109597,0.0009967950000000002
0.108522,-0.0005767970000000001
0.107448,-0.000582397
0.106373,0.000565597
0.10529899999999999,-0.000582397
0.104224,0.00031919800000000003
0.10314999999999999,5.5999756000000005e-05
0.102075,-0.000543197
0.101001,0.0010023950000000001
0.099926736,-0.000218399
0.098852256,-0.0006383970000000001
0.09777777600000001,0.0013159940000000002
0.09670329600000001,-0.00021279900000000003
0.095628816,-0.0006831970000000001
0.094554336,0.001215194
0.093479848,-0.00030799800000000003
0.092405368,-0.000313598
0.09133089600000001,0.0006831970000000001
0.09025640800000001,-0.00048719700000000003
0.08918192800000001,0.00039759800000000004
0.088107448,-1.1199951000000002e-05
0.087032968,-0.000599197
0.08595848,0.000963195
0.084884,-0.000335998
0.08380952800000001,-0.000744796
0.08273504000000001,0.001198394
0.08166056000000001,-0.000313598
0.08058607200000001,-0.0007055960000000001
0.0795116,0.0011871940000000001
0.07843712,-0.000285598
0.077362632,-0.00021279900000000003
0.07628816000000001,0.0007111960000000001
0.07521367200000001,-0.00043119800000000004
0.074139192,0.00048159700000000006
0.073064712,-2.7999878000000003e-05
0.071990232,-0.000671997
0.070915752,0.000923995
0.069841264,-0.000408798
0.068766784,-0.000828796
0.067692312,0.0011871940000000001
0.066617824,-0.000274398
0.065543348,-0.0005935970000000001
0.06446886,0.001310394
0.063394384,-0.000145599
0.062319900000000004,3.9199832000000005e-05
0.06124542,0.0005543970000000001
0.060170940000000006,-0.000912796
0.05909646,-0.00017359900000000003
0.058021976,-0.0006159970000000001
0.056947496,-0.0011199950000000001
0.055873016000000005,0.0007727960000000001
0.054798532000000004,-0.00031919800000000003
0.053724056000000006,-0.000531997
0.052649572000000006,0.001355194
0.051575092,-0.000218399
0.050500608,-0.0005935970000000001
0.049426128,0.001147995
0.048351648000000004,-0.000358398
0.047277168,-0.000223999
0.046202684,0.000520797
0.045128204000000005,-0.00048159700000000006
0.044053724,0.000627197
0.04297924,-2.7999878000000003e-05
0.041904764000000004,-0.0006047970000000001
0.040830280000000004,0.000968795
0.0397558,-0.00045359800000000004
0.038681316,-0.000912796
0.037606836000000005,0.001108795
0.036532356,-0.00042559800000000007
0.035457876,-0.000834396
0.034383392,0.0009407950000000001
0.033308912,-0.000369598
0.03223443,-3.9199832000000005e-05
0.031159950000000002,0.000627197
0.030085470000000003,-0.000391998
0.029010988,0.000755996
0.027936508000000002,0.0
0.026862028000000003,-0.0006495970000000001
0.025787546,0.000968795
0.024713064,-0.000498397
0.023638584,-0.0009295950000000001
0.022564102000000003,0.001114395
0.02148962,-0.00045359800000000004
0.020415140000000002,-0.0008399960000000001
0.019340658,0.0009575950000000001
0.018266178,-0.000279998
0.017191696,1.1199951000000002e-05
0.016117215,0.000543197
0.015042735000000002,-0.00045919700000000006
0.013968254000000001,0.000671997
0.012893773,-4.479980400000001e-05
0.011819292,-0.00043119800000000004
0.01074481,0.001343994
0.009670329,-7.279968000000001e-05
0.008595848,-0.0004759970000000001
0.007521367,0.0015679930000000002
0.006446886000000001,6.7199712e-05
0.005372405,-0.000251998
0.004297924,0.0014335930000000002
0.0032234430000000003,0.0
0.002148962,0.000391998
0.001074481,0.0008511960000000001
0.0,-5.5999756000000005e-05
-0.001074481,0.001097595
-0.002148962,0.00024079800000000002
-0.0032234430000000003,-0.000223999
-0.004297924,0.001427993
-0.005372405,0.00010639900000000001
-0.006446886000000001,1.1199951000000002e-05
-0.007521367,0.0018871910000000003
-0.008595848,0.00039759800000000004
-0.009670329,-3.3599856e-05
-0.01074481,0.0012935940000000001
-0.011819292,2.7999878000000003e-05
-0.012893773,0.000414398
-0.013968254000000001,0.000699996
-0.015042735000000002,-0.00020159900000000003
-0.016117215,0.0009015960000000001
-0.017191696,0.0
-0.018266178,-0.0005767970000000001
-0.019340658,0.0009967950000000002
-0.020415140000000002,-0.000285598
-0.02148962,-0.000699996
-0.022564102000000003,0.001063995
-0.023638584,-0.000296798
-0.024713064,-0.000559997
-0.025787546,0.000800796
-0.026862028000000003,-0.00039759800000000004
-0.027936508000000002,6.159973199999999e-05
-0.029010988,0.000279998
-0.030085470000000003,-0.00044239800000000004
-0.031159950000000002,0.0007335960000000001
-0.03223443,-0.00016239900000000003
-0.033308912,-0.000587997
-0.034383392,0.0010135950000000002
-0.035457876,-0.000330398
-0.036532356,-0.000755996
-0.037606836000000005,0.001024795
-0.038681316,-0.000335998
-0.0397558,-0.000520797
-0.040830280000000004,0.0008231960000000001
-0.041904764000000004,-0.000330398
-0.04297924,0.00017359900000000003
-0.044053724,0.00031919800000000003
-0.045128204000000005,-0.00038639800000000004
-0.046202684,0.0008063960000000001
-0.047277168,-0.00012319900000000002
-0.048351648000000004,-0.000503997
-0.049426128,0.001019195
-0.050500608,-0.00039759800000000004
-0.051575092,-0.0007727960000000001
-0.052649572000000006,0.001097595
-0.053724056000000006,-0.00020159900000000003
-0.054798532000000004,-0.000391998
-0.055873016000000005,0.000834396
-0.056947496,-0.000291198
-0.058021976,0.000285598
-0.05909646,0.00034719800000000006
-0.060170940000000006,-0.000330398
-0.06124542,0.000873596
-0.062319900000000004,-0.00011199900000000001
-0.063394384,-0.000515197
-0.06446886,0.001080795
-0.065543348,-0.000251998
-0.066617824,-0.000655197
-0.067692312,0.0010695950000000002
-0.068766784,-0.00017359900000000003
-0.069841264,-0.00034159800000000003
-0.070915752,0.000828796
-0.071990232,-0.00024639800000000005
-0.073064712,0.00048159700000000006
-0.074139192,0.00034719800000000006
-0.07521367200000001,-0.000335998
-0.07628816000000001,0.0008511960000000001
-0.077362632,-0.00020159900000000003
-0.07843712,-0.000599197
-0.0795116,0.0009967950000000002
-0.08058607200000001,-0.000296798
-0.08166056000000001,-0.0006943960000000001
-0.08273504000000001,0.001007995
-0.08380952800000001,-0.00031919800000000003
-0.084884,-0.000391998
-0.08595848,0.000722396
-0.087032968,-0.00035279800000000003
-0.088107448,0.00030239800000000005
-0.08918192800000001,0.00019039900000000003
-0.09025640800000001,-0.00041999800000000004
-0.09133089600000001,0.0008399960000000001
-0.092405368,-0.000218399
-0.093479848,-0.0006047970000000001
-0.094554336,0.0010471950000000001
-0.095628816,-0.000257598
-0.09670329600000001,-0.0006495970000000001
-0.09777777600000001,0.001024795
-0.098852256,-0.000251998
-0.099926736,-0.000296798
-0.101001,0.0007111960000000001
-0.102075,-0.000313598
-0.10314999999999999,0.000358398
-0.104224,0.00015119900000000003
-0.10529899999999999,-0.000447998
-0.106373,0.000834396
-0.107448,-0.00024079800000000002
-0.108522,-0.000643997
-0.109597,0.000991195
-0.11067099999999999,-0.00034719800000000006
-0.111746,-0.0007503960000000001
-0.11281999999999999,0.0009183950000000001
-0.113894,-0.00034719800000000006
-0.11496899999999999,-0.000369598
-0.116043,0.000627197
-0.117118,-0.00037519800000000004
-0.11819199999999999,0.00034719800000000006
-0.119267,9.5199592e-05
-0.12034099999999999,-0.00045359800000000004
-0.121416,0.0008791960000000001
-0.12248999999999999,-0.000263198
-0.123565,-0.000655197
-0.124639,0.000979995
-0.125714,-0.000335998
-0.12678799999999998,-0.0007279960000000001
-0.127863,0.000912796
-0.128937,-0.00036399800000000003
-0.130012,-0.000335998
-0.13108599999999998,0.0005767970000000001
-0.132161,-0.00038079800000000006
-0.133235,0.00038639800000000004
-0.13430999999999998,5.0399780000000004e-05
-0.135384,-0.00048719700000000003
-0.136459,0.000828796
-0.137533,-0.00030239800000000005
-0.13860799999999998,-0.0006943960000000001
-0.139682,0.000946395
-0.140757,-0.00035279800000000003
-0.14183099999999998,-0.0007055960000000001
-0.142905,0.0009295950000000001
-0.14398,-0.000313598
-0.145054,-0.000223999
-0.14612899999999998,0.000627197
-0.147203,-0.00031919800000000003
-0.148278,0.0004927970000000001
-0.14935199999999998,8.3999632e-05
-0.150427,-0.00044239800000000004
-0.151501,0.0009071960000000001
-0.152576,-0.00024639800000000005
-0.15364999999999998,-0.0006159970000000001
-0.154725,0.0010695950000000002
-0.155799,-0.00024639800000000005
-0.15687399999999999,-0.000632797
-0.157948,0.0009407950000000001
-0.159023,-0.000313598
-0.160097,-0.00016239900000000003
-0.16117199999999998,0.000582397
-0.162246,-0.00034159800000000003
-0.163321,0.000503997
-0.16439499999999999,0.0
-0.16547,-0.000358398
-0.166544,0.000834396
-0.167619,-0.000408798
-0.16869299999999998,-0.000744796
-0.169768,0.001007995
-0.170842,-0.000291198
-0.17191599999999999,-0.0007111960000000001
-0.172991,0.0007951960000000001
-0.174065,-0.0004759970000000001
-0.17514,-0.00023519800000000002
-0.17621399999999998,0.000447998
-0.177289,-0.000436798
-0.178363,0.0004759970000000001
-0.179438,-5.0399780000000004e-05
-0.18051199999999998,-0.000543197
-0.181587,0.0008511960000000001
-0.182661,-0.00034719800000000006
-0.18373599999999998,-0.000744796
-0.18481,0.0009183950000000001
-0.185885,-0.000408798
-0.186959,-0.000744796
-0.18803399999999998,0.0007951960000000001
-0.189108,-0.000414398
-0.190183,-0.00019039900000000003
-0.19125699999999998,0.00042559800000000007
-0.192332,-0.000436798
-0.193406,0.000498397
-0.194481,-0.00010639900000000001
-0.19555499999999998,-0.0005711970000000001
-0.19663,0.0008623960000000001
-0.197704,-0.000369598
-0.19877799999999998,-0.000767196
-0.199853,0.000923995
